Timestamp,TP9,AF7,AF8,TP10
120.01171875,-9.765625,-24.90234375,-1.46484375,29.78515625
120.015625,-43.45703125,-46.38671875,-38.0859375,-73.73046875
120.01953125,-2.9296875,-29.296875,-37.59765625,-10.25390625
120.0234375,14.16015625,-23.4375,-20.5078125,83.49609375
120.02734375,14.6484375,0.9765625,2.9296875,20.5078125
120.03125,-37.109375,-10.7421875,-20.99609375,-41.50390625
120.03515625,-58.10546875,-37.109375,-21.97265625,-5.37109375
120.0390625,16.11328125,8.30078125,15.625,20.01953125
120.04296875,-17.578125,-3.90625,-14.6484375,-65.4296875
120.046875,-85.44921875,-60.546875,-57.12890625,-69.3359375
120.05078125,-76.66015625,-72.265625,-52.734375,-33.203125
120.0546875,-80.56640625,-62.01171875,-28.80859375,-29.296875
120.05859375,-71.77734375,-45.8984375,-32.2265625,-10.25390625
120.0625,1.46484375,-10.25390625,-2.9296875,7.32421875
120.06640625,80.078125,24.90234375,58.59375,77.63671875
120.0703125,115.234375,47.8515625,68.359375,134.765625
120.07421875,38.57421875,20.99609375,3.41796875,40.52734375
120.078125,-95.703125,-62.01171875,-82.51953125,-104.00390625
120.08203125,-130.859375,-106.93359375,-96.19140625,-132.32421875
120.0859375,-129.39453125,-89.35546875,-65.4296875,-147.94921875
120.08984375,-117.1875,-61.03515625,-50.29296875,-178.7109375
120.09375,-83.984375,-35.64453125,-39.55078125,-76.66015625
120.09765625,-8.7890625,-7.32421875,7.32421875,21.484375
120.1015625,35.64453125,6.8359375,39.55078125,16.11328125
120.10546875,52.24609375,54.19921875,73.73046875,65.91796875
120.109375,59.5703125,68.84765625,69.3359375,68.84765625
120.11328125,-17.578125,-24.4140625,-4.39453125,-9.27734375
120.1171875,-117.1875,-109.375,-51.26953125,-85.9375
120.12109375,-156.25,-124.51171875,-72.75390625,-162.59765625
120.125,-92.28515625,-85.9375,-53.7109375,-158.203125
120.12890625,-64.453125,-58.59375,-31.25,-93.75
120.1328125,-5.859375,-8.7890625,14.16015625,34.1796875
120.13671875,136.23046875,93.26171875,76.171875,152.34375
120.140625,58.59375,49.8046875,14.6484375,66.89453125
120.14453125,-123.53515625,-73.2421875,-76.171875,-109.375
120.1484375,-144.04296875,-95.21484375,-75.1953125,-124.51171875
120.15234375,-82.03125,-73.73046875,-47.36328125,-106.93359375
120.15625,-53.22265625,-52.734375,-41.9921875,-120.1171875
120.16015625,-22.94921875,-31.25,-39.0625,-73.2421875
120.1640625,0.0,-27.34375,-34.66796875,-11.23046875
120.16796875,31.25,-11.71875,-8.7890625,41.50390625
120.171875,102.5390625,45.8984375,58.59375,87.40234375
120.17578125,95.21484375,71.2890625,85.44921875,75.68359375
120.1796875,-7.32421875,11.71875,13.18359375,-16.11328125
120.18359375,-96.19140625,-71.2890625,-87.40234375,-116.2109375
120.1875,-125.9765625,-84.9609375,-95.21484375,-125.48828125
120.19140625,-93.75,-66.89453125,-68.84765625,-95.21484375
120.1953125,-32.2265625,-41.9921875,-44.921875,-56.640625
120.19921875,-0.48828125,-25.390625,-21.97265625,-7.32421875
120.203125,46.38671875,9.27734375,-9.27734375,14.6484375
120.20703125,68.359375,36.62109375,18.06640625,53.7109375
120.2109375,51.7578125,-0.9765625,33.69140625,65.91796875
120.21484375,-21.97265625,-48.33984375,-17.08984375,-40.0390625
120.21875,-94.7265625,-61.5234375,-75.68359375,-159.1796875
120.22265625,-84.9609375,-38.57421875,-54.6875,-114.74609375
120.2265625,-41.015625,-22.94921875,-28.3203125,-69.82421875
120.23046875,-21.97265625,-34.1796875,-41.015625,-49.8046875
120.234375,17.578125,-16.11328125,-18.5546875,17.578125
120.23828125,96.19140625,48.828125,59.08203125,81.0546875
120.2421875,68.359375,38.57421875,71.77734375,77.63671875
120.24609375,-33.69140625,-28.80859375,-10.7421875,-40.0390625
120.25,-69.82421875,-69.82421875,-61.5234375,-87.40234375
120.25390625,-130.37109375,-90.33203125,-74.21875,-168.45703125
120.2578125,-192.3828125,-46.875,-74.21875,-218.26171875
120.26171875,-108.3984375,-16.6015625,-60.05859375,-112.79296875
120.265625,-52.24609375,-39.0625,0.9765625,-42.96875
120.26953125,-96.6796875,-3.90625,29.78515625,-143.5546875
120.2734375,-41.015625,46.875,27.83203125,-167.48046875
120.27734375,-19.53125,35.15625,17.08984375,-40.52734375
120.28125,-139.6484375,15.13671875,-57.6171875,-176.7578125
120.28515625,-102.05078125,-2.9296875,7.8125,-170.41015625
120.2890625,110.3515625,-46.875,28.3203125,91.30859375
120.29296875,169.43359375,-47.36328125,-36.62109375,191.40625
120.296875,66.40625,-43.45703125,-19.53125,48.828125
120.30078125,-116.69921875,-37.109375,27.83203125,-118.1640625
120.3046875,-207.03125,51.26953125,41.015625,-210.44921875
120.30859375,-145.99609375,99.12109375,-3.41796875,-218.26171875
120.3125,-189.94140625,-0.9765625,-48.828125,-328.61328125
120.31640625,-137.6953125,-56.15234375,-81.54296875,-195.80078125
120.3203125,-101.5625,-62.5,-72.265625,-85.44921875
120.32421875,-143.06640625,-64.453125,-74.70703125,-230.95703125
120.328125,50.29296875,-91.796875,-61.5234375,47.36328125
120.33203125,133.7890625,-68.359375,-16.11328125,128.41796875
120.3359375,138.671875,-18.06640625,8.30078125,80.56640625
120.33984375,87.40234375,-14.16015625,2.44140625,14.6484375
120.34375,-16.11328125,7.8125,-16.11328125,-26.3671875
120.34765625,-21.97265625,-7.32421875,-9.27734375,11.71875
120.3515625,-6.8359375,-97.65625,-69.3359375,8.7890625
120.35546875,-9.765625,-107.421875,-104.00390625,45.41015625
120.359375,-53.22265625,-82.51953125,-50.29296875,-31.73828125
120.36328125,-45.41015625,-58.10546875,-38.57421875,-32.2265625
120.3671875,9.27734375,-59.08203125,-3.90625,18.06640625
120.37109375,77.1484375,-24.4140625,26.85546875,55.6640625
120.375,107.421875,7.8125,18.06640625,77.63671875
120.37890625,39.55078125,-34.66796875,-37.109375,10.25390625
120.3828125,-26.85546875,-49.31640625,-88.37890625,-7.32421875
120.38671875,15.625,-40.0390625,-68.359375,13.671875
120.390625,21.97265625,-63.96484375,-43.9453125,-20.01953125
120.39453125,-56.640625,-84.9609375,-48.828125,-70.80078125
120.3984375,-12.20703125,-52.24609375,-27.34375,-25.390625
120.40234375,64.453125,-13.18359375,-16.11328125,36.1328125
120.40625,65.91796875,1.46484375,-2.9296875,18.06640625
120.41015625,45.8984375,11.71875,2.9296875,2.44140625
120.4140625,-5.37109375,-32.2265625,-17.08984375,-8.30078125
120.41796875,20.01953125,-54.19921875,-25.390625,-9.27734375
120.421875,82.51953125,8.30078125,-5.859375,-12.6953125
120.42578125,83.984375,31.73828125,0.9765625,36.1328125
120.4296875,28.3203125,-26.85546875,-26.85546875,-4.8828125
120.43359375,-8.30078125,-75.68359375,-41.9921875,-74.21875
120.4375,-31.25,-70.3125,-40.52734375,-33.203125
120.44140625,-47.8515625,-50.29296875,-44.43359375,-49.8046875
120.4453125,21.97265625,-23.4375,-15.625,-9.765625
120.44921875,96.6796875,36.1328125,36.62109375,32.2265625
120.453125,97.65625,52.734375,32.71484375,53.22265625
120.45703125,27.34375,-15.13671875,-10.7421875,23.92578125
120.4609375,-31.25,-69.3359375,-47.36328125,-81.54296875
120.46484375,-26.3671875,-61.5234375,-52.24609375,-18.06640625
120.46875,7.32421875,-11.23046875,-21.97265625,42.96875
120.47265625,1.46484375,-14.16015625,-6.34765625,-25.390625
120.4765625,-51.26953125,-47.8515625,-27.83203125,-61.5234375
120.48046875,-37.109375,-60.05859375,-26.3671875,-6.8359375
120.484375,12.20703125,-55.6640625,-4.39453125,-12.20703125
120.48828125,22.4609375,-18.5546875,8.30078125,-45.8984375
120.4921875,9.27734375,-5.37109375,13.671875,-16.11328125
120.49609375,-1.953125,-21.97265625,1.46484375,38.57421875
120.5,-13.671875,-30.2734375,-42.48046875,-12.6953125
120.50390625,-43.9453125,-31.25,-58.59375,-35.64453125
120.5078125,-31.73828125,-30.2734375,-24.90234375,-41.015625
120.51171875,45.8984375,-7.8125,23.92578125,18.06640625
120.515625,89.35546875,30.2734375,66.40625,106.93359375
120.51953125,16.11328125,-0.48828125,29.296875,37.59765625
120.5234375,-19.53125,-32.2265625,-13.671875,-54.19921875
120.52734375,-31.25,-49.8046875,-22.94921875,-93.75
120.53125,-40.0390625,-53.7109375,-50.78125,-27.34375
120.53515625,-26.3671875,-36.1328125,-55.6640625,24.4140625
120.5390625,-49.31640625,-46.38671875,-32.71484375,-57.12890625
120.54296875,-43.45703125,-37.109375,-9.27734375,-41.015625
120.546875,-6.34765625,-5.37109375,6.34765625,33.203125
120.55078125,0.9765625,5.859375,10.25390625,-0.48828125
120.5546875,20.99609375,-6.34765625,16.11328125,3.90625
120.55859375,75.1953125,-4.8828125,24.90234375,24.4140625
120.5625,25.390625,-6.8359375,11.71875,-18.06640625
120.56640625,-64.94140625,-47.8515625,-42.48046875,-33.69140625
120.5703125,-77.1484375,-63.96484375,-62.98828125,-66.40625
120.57421875,-62.5,-54.6875,-40.0390625,-88.37890625
120.578125,-21.484375,-32.71484375,-4.8828125,-22.94921875
120.58203125,15.13671875,-18.06640625,20.99609375,4.8828125
120.5859375,16.6015625,-25.87890625,14.6484375,12.6953125
120.58984375,-3.90625,-12.20703125,0.9765625,18.06640625
120.59375,-36.62109375,-18.5546875,-16.11328125,-26.3671875
120.59765625,-34.1796875,-29.296875,-45.41015625,-34.66796875
120.6015625,-6.8359375,-1.46484375,-36.62109375,-20.5078125
120.60546875,3.90625,9.765625,6.8359375,26.85546875
120.609375,-41.9921875,-25.390625,-6.8359375,-23.4375
120.61328125,-41.9921875,-30.76171875,-21.97265625,-41.9921875
120.6171875,17.578125,-3.90625,-6.34765625,-2.44140625
120.62109375,46.38671875,4.39453125,23.92578125,33.203125
120.625,0.9765625,-26.3671875,10.25390625,-20.01953125
120.62890625,-45.8984375,-48.828125,-35.64453125,-70.3125
120.6328125,-43.45703125,-48.828125,-51.7578125,-39.0625
120.63671875,-12.20703125,-43.9453125,-41.9921875,-31.25
120.640625,55.17578125,0.0,-6.8359375,21.484375
120.64453125,80.56640625,28.80859375,13.18359375,58.10546875
120.6484375,36.62109375,22.94921875,16.11328125,32.71484375
120.65234375,11.23046875,13.18359375,5.37109375,5.859375
120.65625,-46.875,-40.0390625,-47.36328125,-81.0546875
120.66015625,-100.5859375,-56.640625,-73.2421875,-108.88671875
120.6640625,-69.3359375,-41.015625,-62.5,-62.98828125
120.66796875,-33.69140625,-46.38671875,-34.1796875,-24.90234375
120.671875,17.578125,-24.4140625,3.90625,13.671875
120.67578125,61.03515625,13.18359375,25.87890625,27.83203125
120.6796875,23.4375,2.44140625,22.94921875,3.90625
120.68359375,-11.23046875,-22.4609375,12.20703125,1.953125
120.6875,-35.15625,-33.69140625,-14.16015625,-61.5234375
120.69140625,-75.68359375,-42.48046875,-44.921875,-97.16796875
120.6953125,-91.796875,-58.59375,-66.40625,-71.77734375
120.69921875,-75.68359375,-47.36328125,-54.6875,-59.08203125
120.703125,-36.1328125,-9.765625,-13.18359375,-39.0625
120.70703125,-16.6015625,-3.41796875,-2.44140625,-51.26953125
120.7109375,-54.19921875,-28.80859375,-34.66796875,-96.19140625
120.71484375,-49.31640625,-44.43359375,-40.0390625,-58.59375
120.71875,-18.5546875,-47.36328125,-18.06640625,-6.34765625
120.72265625,-21.97265625,-45.41015625,-18.5546875,-40.52734375
120.7265625,-34.66796875,-37.109375,-27.34375,-63.4765625
120.73046875,-50.78125,-43.45703125,-38.57421875,-51.7578125
120.734375,-47.36328125,-40.0390625,-38.57421875,-55.6640625
120.73828125,-29.296875,-27.83203125,-5.859375,-59.5703125
120.7421875,-2.44140625,-23.4375,18.5546875,-26.3671875
120.74609375,48.33984375,3.90625,42.96875,32.2265625
120.75,-0.9765625,-0.48828125,15.13671875,-13.671875
120.75390625,-62.01171875,-38.57421875,-46.875,-76.66015625
120.7578125,-13.18359375,-25.390625,-21.484375,-14.16015625
120.76171875,-3.90625,15.625,2.44140625,13.671875
120.765625,-19.04296875,-4.8828125,-20.01953125,-18.06640625
120.76953125,-23.4375,-65.4296875,-35.64453125,-60.546875
120.7734375,-88.8671875,-64.94140625,-40.0390625,-90.8203125
120.77734375,-99.12109375,-52.734375,-20.5078125,-157.71484375
120.78125,-46.38671875,-42.96875,-25.390625,-144.04296875
120.78515625,6.8359375,-33.203125,-7.32421875,21.97265625
120.7890625,48.33984375,-9.765625,27.83203125,38.0859375
120.79296875,27.34375,5.859375,17.578125,-7.8125
120.796875,-15.13671875,11.23046875,11.71875,-41.9921875
120.80078125,-68.84765625,8.7890625,-33.69140625,-70.80078125
120.8046875,-154.78515625,-36.62109375,-45.8984375,-199.21875
120.80859375,-143.5546875,-83.49609375,-22.4609375,-254.8828125
120.8125,-23.4375,-41.015625,-61.5234375,-51.26953125
120.81640625,21.484375,-18.5546875,-20.5078125,20.01953125
120.8203125,-20.01953125,-25.87890625,22.94921875,-43.9453125
120.82421875,-20.5078125,22.4609375,-15.13671875,-10.7421875
120.828125,-13.671875,0.9765625,-16.6015625,-16.6015625
120.83203125,-24.90234375,-62.5,-21.484375,-28.3203125
120.8359375,18.06640625,-38.57421875,-59.08203125,-41.015625
120.83984375,-16.11328125,-10.7421875,-31.73828125,-54.6875
120.84375,-68.359375,-42.96875,-20.5078125,-68.359375
120.84765625,-24.4140625,-76.171875,-12.20703125,-93.75
120.8515625,0.9765625,-32.71484375,11.23046875,-9.765625
120.85546875,-15.625,0.9765625,-18.06640625,23.4375
120.859375,1.953125,-43.45703125,-33.69140625,-21.97265625
120.86328125,25.87890625,-37.109375,-17.578125,-38.57421875
120.8671875,75.68359375,9.27734375,-5.859375,38.0859375
120.87109375,14.6484375,-25.390625,-36.1328125,20.99609375
120.875,-40.52734375,-67.3828125,-71.2890625,-54.19921875
120.87890625,-30.2734375,-62.5,-65.91796875,-58.10546875
120.8828125,-54.6875,-21.484375,-25.390625,-55.17578125
120.88671875,28.80859375,-6.8359375,18.5546875,-20.99609375
120.890625,85.9375,-41.015625,1.953125,30.2734375
120.89453125,1.46484375,-29.296875,-20.5078125,4.39453125
120.8984375,-29.78515625,-42.48046875,-30.2734375,-19.53125
120.90234375,-47.8515625,-56.15234375,-38.57421875,-64.94140625
120.90625,-47.8515625,-36.62109375,-29.296875,-107.91015625
120.91015625,-38.57421875,-21.97265625,-44.43359375,-33.69140625
120.9140625,-31.25,-39.55078125,-44.921875,8.30078125
120.91796875,-7.8125,-43.45703125,-24.4140625,-43.45703125
120.921875,-22.94921875,-33.203125,-18.5546875,-59.08203125
120.92578125,28.80859375,10.7421875,7.32421875,48.828125
120.9296875,64.94140625,22.94921875,-1.953125,86.9140625
120.93359375,-8.30078125,-40.52734375,-31.73828125,-43.9453125
120.9375,-42.48046875,-71.2890625,-40.52734375,-102.5390625
120.94140625,-61.5234375,-78.61328125,-56.15234375,-67.3828125
120.9453125,-58.10546875,-46.38671875,-38.57421875,-77.1484375
120.94921875,7.8125,-2.9296875,5.37109375,-14.16015625
120.953125,90.33203125,20.99609375,40.52734375,69.3359375
120.95703125,39.55078125,3.41796875,17.578125,4.8828125
120.9609375,-54.19921875,-37.109375,-39.0625,-62.98828125
120.96484375,-29.78515625,-21.97265625,-41.015625,-20.99609375
120.96875,-13.18359375,-2.9296875,-33.203125,9.27734375
120.97265625,-33.69140625,-27.83203125,-40.52734375,-16.6015625
120.9765625,-34.66796875,-39.55078125,-35.15625,-64.94140625
120.98046875,-31.73828125,-25.87890625,-21.97265625,-107.421875
120.984375,18.06640625,-11.23046875,-0.9765625,11.71875
120.98828125,98.6328125,19.53125,31.25,78.61328125
120.9921875,121.09375,38.0859375,56.15234375,68.84765625
120.99609375,29.296875,-18.06640625,9.765625,15.13671875
121.0,-60.546875,-62.98828125,-51.7578125,-75.68359375
121.00390625,-63.4765625,-44.921875,-46.875,-41.50390625
121.0078125,-55.17578125,-29.296875,-37.59765625,-55.6640625
121.01171875,-49.8046875,-10.25390625,-43.45703125,-95.703125
121.015625,15.625,2.9296875,-17.08984375,-22.4609375
121.01953125,18.06640625,-19.04296875,-7.32421875,26.85546875
121.0234375,-20.01953125,-25.87890625,1.953125,27.34375
121.02734375,-30.76171875,-21.97265625,4.39453125,-29.296875
121.03125,-52.24609375,-39.55078125,-21.484375,-34.66796875
121.03515625,-16.11328125,-40.52734375,-15.13671875,-35.64453125
121.0390625,-24.90234375,-33.69140625,-17.08984375,-80.56640625
121.04296875,-49.8046875,-26.85546875,-30.2734375,-19.53125
121.046875,-39.0625,-22.94921875,-16.6015625,-5.859375
121.05078125,-13.18359375,-13.671875,-5.859375,-17.578125
121.0546875,-3.41796875,-18.06640625,-4.8828125,-34.1796875
121.05859375,3.41796875,-20.99609375,36.62109375,13.671875
121.0625,-21.484375,-24.4140625,14.6484375,-19.04296875
121.06640625,-79.1015625,-40.0390625,-40.52734375,-66.89453125
121.0703125,-67.3828125,-43.45703125,-32.71484375,-29.78515625
121.07421875,-83.0078125,-50.78125,-32.2265625,-68.84765625
121.078125,-97.65625,-46.875,-36.1328125,-109.86328125
121.08203125,-90.33203125,-51.26953125,-38.57421875,-112.3046875
121.0859375,-30.76171875,-33.69140625,-6.8359375,-27.34375
121.08984375,-8.7890625,8.7890625,26.85546875,-10.25390625
121.09375,-75.68359375,-7.8125,28.3203125,-71.2890625
121.09765625,-105.46875,-41.50390625,-3.90625,-96.6796875
121.1015625,-104.00390625,-60.546875,-28.3203125,-113.28125
121.10546875,-97.16796875,-40.0390625,-6.8359375,-117.67578125
121.109375,-100.09765625,-22.4609375,-4.8828125,-116.69921875
121.11328125,-94.7265625,-24.90234375,15.13671875,-100.5859375
121.1171875,-81.54296875,2.9296875,41.50390625,-85.44921875
121.12109375,-176.26953125,-21.484375,-11.23046875,-181.15234375
121.125,-201.171875,-44.921875,-48.828125,-254.8828125
121.12890625,-141.6015625,-35.15625,-21.97265625,-198.73046875
121.1328125,-111.81640625,-22.4609375,7.8125,-136.71875
121.13671875,-145.01953125,-32.71484375,-15.625,-166.015625
121.140625,-223.6328125,-67.87109375,-31.25,-260.25390625
121.14453125,-207.51953125,-22.4609375,-2.9296875,-278.80859375
121.1484375,-108.3984375,28.80859375,32.71484375,-180.6640625
121.15234375,-132.8125,-8.30078125,23.4375,-174.31640625
121.15625,-207.03125,-39.0625,-16.11328125,-252.9296875
121.16015625,-195.3125,-38.57421875,-7.32421875,-225.09765625
121.1640625,-128.41796875,-7.8125,12.20703125,-151.85546875
121.16796875,-78.61328125,-18.5546875,15.625,-98.6328125
121.171875,-82.51953125,-12.6953125,9.27734375,-127.44140625
121.17578125,-92.7734375,7.8125,-11.71875,-150.390625
121.1796875,-55.6640625,-7.32421875,-7.32421875,-62.98828125
121.18359375,-40.52734375,5.859375,13.671875,-37.59765625
121.1875,-97.16796875,-33.203125,-9.765625,-142.578125
121.19140625,-112.3046875,-30.76171875,-39.55078125,-141.6015625
121.1953125,-97.16796875,-27.34375,-5.859375,-128.90625
121.19921875,-62.01171875,-42.96875,7.32421875,-145.99609375
121.203125,13.671875,-9.27734375,-1.46484375,-18.5546875
121.20703125,86.42578125,9.27734375,42.96875,133.30078125
121.2109375,100.5859375,6.34765625,4.8828125,114.74609375
121.21484375,-23.4375,-72.265625,-74.70703125,-77.1484375
121.21875,-151.85546875,-98.6328125,-68.359375,-234.375
121.22265625,-48.828125,-15.13671875,-37.109375,-80.078125
121.2265625,114.74609375,12.20703125,-28.80859375,101.07421875
121.23046875,31.25,-14.6484375,-17.08984375,-91.796875
121.234375,-35.15625,-20.5078125,-38.0859375,-146.97265625
121.23828125,96.6796875,-27.83203125,-38.57421875,86.9140625
121.2421875,174.8046875,-23.92578125,-21.484375,152.83203125
121.24609375,78.61328125,-25.390625,-33.203125,43.9453125
121.25,55.17578125,-22.4609375,1.46484375,29.296875
121.25390625,65.4296875,-25.390625,-28.80859375,62.98828125
121.2578125,38.57421875,-34.66796875,-58.59375,57.12890625
121.26171875,46.38671875,-20.99609375,-46.38671875,48.828125
121.265625,67.87109375,-14.16015625,-41.9921875,43.9453125
121.26953125,74.21875,-7.8125,-28.3203125,40.52734375
121.2734375,74.70703125,-16.6015625,-34.1796875,70.3125
121.27734375,107.421875,-29.296875,-28.80859375,99.12109375
121.28125,118.65234375,-29.296875,-41.50390625,102.05078125
121.28515625,88.37890625,-61.03515625,-29.296875,94.23828125
121.2890625,117.1875,-46.875,27.83203125,98.6328125
121.29296875,82.51953125,-23.92578125,-5.859375,57.12890625
121.296875,-7.32421875,-63.96484375,-67.3828125,9.27734375
121.30078125,-20.99609375,-55.6640625,-77.63671875,-23.92578125
121.3046875,20.01953125,-23.92578125,-62.01171875,-17.578125
121.30859375,64.453125,-32.71484375,-43.45703125,15.13671875
121.3125,99.609375,-24.4140625,-14.16015625,49.31640625
121.31640625,108.3984375,-2.44140625,2.9296875,100.09765625
121.3203125,73.2421875,-21.484375,-14.16015625,72.265625
121.32421875,62.98828125,-35.64453125,-14.6484375,29.296875
121.328125,70.3125,-6.34765625,-7.32421875,65.91796875
121.33203125,21.484375,-18.06640625,-43.45703125,53.22265625
121.3359375,-10.25390625,-47.36328125,-81.54296875,-0.48828125
121.33984375,0.48828125,-57.12890625,-65.4296875,3.41796875
121.34375,23.4375,-61.03515625,-22.4609375,0.0
121.34765625,89.35546875,-11.23046875,23.92578125,54.19921875
121.3515625,112.79296875,17.08984375,27.83203125,95.21484375
121.35546875,50.78125,-13.18359375,-23.92578125,55.17578125
121.359375,-12.6953125,-55.17578125,-63.96484375,0.48828125
121.36328125,-11.71875,-71.77734375,-70.3125,-26.85546875
121.3671875,2.44140625,-56.640625,-56.15234375,-29.296875
121.37109375,2.9296875,-43.45703125,-29.296875,12.6953125
121.375,27.34375,-6.8359375,-6.8359375,27.34375
121.37890625,60.546875,23.4375,-12.6953125,72.75390625
121.3828125,60.05859375,9.27734375,-20.5078125,77.1484375
121.38671875,20.5078125,-6.34765625,-12.6953125,29.296875
121.390625,-3.41796875,-11.23046875,-11.71875,11.71875
121.39453125,3.41796875,-20.01953125,-16.6015625,-2.9296875
121.3984375,23.92578125,-26.85546875,-18.06640625,23.92578125
121.40234375,46.875,-17.08984375,-11.23046875,36.1328125
121.40625,19.04296875,-8.30078125,-14.16015625,30.2734375
121.41015625,-32.2265625,-23.4375,-38.57421875,-4.39453125
121.4140625,-35.15625,-30.76171875,-46.38671875,-45.41015625
121.41796875,-10.7421875,-7.8125,-22.94921875,-10.7421875
121.421875,11.71875,25.87890625,-1.953125,29.78515625
121.42578125,21.97265625,12.20703125,-0.9765625,13.671875
121.4296875,16.11328125,-19.53125,4.39453125,-1.953125
121.43359375,-13.18359375,-49.8046875,-30.76171875,-22.4609375
121.4375,-36.1328125,-59.08203125,-54.6875,-17.08984375
121.44140625,0.0,-25.87890625,-33.69140625,21.97265625
121.4453125,25.390625,-20.5078125,-20.01953125,32.2265625
121.44921875,-16.11328125,-43.45703125,-29.78515625,-7.8125
121.453125,-27.83203125,-45.41015625,-49.31640625,-26.3671875
121.45703125,-51.7578125,-24.4140625,-37.59765625,-44.921875
121.4609375,-49.31640625,-12.6953125,-17.08984375,-29.296875
121.46484375,-5.37109375,-14.6484375,-7.8125,15.625
121.46875,11.71875,-22.94921875,9.27734375,18.06640625
121.47265625,66.40625,17.08984375,52.24609375,50.29296875
121.4765625,40.0390625,1.953125,35.15625,62.01171875
121.48046875,-71.2890625,-57.6171875,-66.89453125,-35.64453125
121.484375,-160.15625,-75.68359375,-78.125,-165.0390625
121.48828125,-163.0859375,-48.828125,-59.08203125,-152.83203125
121.4921875,-93.75,-8.7890625,-47.8515625,-95.703125
121.49609375,-48.33984375,-8.7890625,-17.578125,-56.15234375
121.5,-10.25390625,-10.7421875,-20.99609375,16.11328125
121.50390625,-1.953125,-40.0390625,-6.8359375,-17.08984375
121.5078125,-58.10546875,3.41796875,-8.30078125,-59.08203125
121.51171875,-116.69921875,35.15625,-35.15625,-94.7265625
121.515625,-2.44140625,-33.203125,-40.0390625,5.859375
121.51953125,123.53515625,-51.7578125,-4.8828125,149.4140625
121.5234375,-56.15234375,24.4140625,-23.92578125,24.4140625
121.52734375,-223.14453125,0.48828125,-39.55078125,-134.765625
121.53125,-64.94140625,-74.21875,-29.296875,-39.0625
121.53515625,-22.94921875,-71.2890625,-42.48046875,-0.48828125
121.5390625,-31.73828125,-47.8515625,-0.9765625,-33.69140625
121.54296875,84.47265625,-18.06640625,42.96875,16.11328125
121.546875,150.390625,-19.53125,35.64453125,131.34765625
121.55078125,12.20703125,-20.99609375,-8.30078125,41.9921875
121.5546875,-97.65625,-36.1328125,-53.7109375,-69.82421875
121.55859375,-30.76171875,-55.6640625,-42.48046875,-11.23046875
121.5625,-32.71484375,-60.05859375,-42.48046875,-38.0859375
121.56640625,-62.01171875,-38.0859375,-37.59765625,-68.84765625
121.5703125,-19.04296875,-21.484375,-26.85546875,-1.46484375
121.57421875,1.46484375,-23.92578125,-20.99609375,-0.48828125
121.578125,-27.83203125,-25.390625,-33.203125,-52.24609375
121.58203125,-59.08203125,-57.12890625,-28.80859375,-71.77734375
121.5859375,22.94921875,-25.390625,17.578125,17.08984375
121.58984375,77.1484375,27.34375,30.2734375,67.87109375
121.59375,-5.859375,-16.11328125,2.44140625,7.8125
121.59765625,-74.21875,-41.50390625,-37.109375,-66.89453125
121.6015625,-93.26171875,-54.6875,-63.96484375,-81.0546875
121.60546875,-94.23828125,-62.01171875,-58.59375,-71.2890625
121.609375,-95.703125,-32.2265625,-53.22265625,-59.5703125
121.61328125,-36.1328125,-15.625,-23.4375,-31.25
121.6171875,42.48046875,6.34765625,22.4609375,19.04296875
121.62109375,10.7421875,-3.90625,4.8828125,10.25390625
121.625,-66.40625,-45.41015625,-49.8046875,-48.33984375
121.62890625,-98.14453125,-60.05859375,-70.80078125,-57.12890625
121.6328125,-57.12890625,-42.96875,-47.8515625,-39.0625
121.63671875,-0.9765625,-17.08984375,-16.11328125,5.37109375
121.640625,3.90625,-3.90625,-1.46484375,23.4375
121.64453125,-18.06640625,-19.53125,3.90625,-12.6953125
121.6484375,-39.0625,-39.0625,-9.765625,-33.203125
121.65234375,-63.4765625,-45.8984375,-39.0625,-50.29296875
121.65625,-45.8984375,-19.53125,-20.99609375,-50.29296875
121.66015625,-12.20703125,11.71875,0.0,-6.34765625
121.6640625,-23.4375,-8.7890625,-16.11328125,-6.34765625
121.66796875,-62.01171875,-42.96875,-41.9921875,-43.45703125
121.671875,-72.75390625,-33.69140625,-37.59765625,-53.22265625
121.67578125,-48.33984375,-44.921875,-12.6953125,-19.04296875
121.6796875,-46.38671875,-63.4765625,-13.18359375,-21.97265625
121.68359375,-33.203125,-36.62109375,-18.06640625,-36.62109375
121.6875,-46.875,-23.92578125,-36.62109375,-41.015625
121.69140625,-27.83203125,2.44140625,-18.5546875,-6.34765625
121.6953125,14.16015625,29.78515625,31.25,39.55078125
121.69921875,-23.92578125,9.27734375,26.3671875,5.859375
121.703125,-74.70703125,-41.50390625,-32.2265625,-47.36328125
121.70703125,-81.0546875,-36.62109375,-51.26953125,-46.38671875
121.7109375,-43.9453125,-12.20703125,-16.11328125,-12.6953125
121.71484375,-36.62109375,-47.8515625,-22.4609375,-9.27734375
121.71875,-23.92578125,-56.640625,-35.15625,-7.8125
121.72265625,34.1796875,-11.71875,19.53125,41.9921875
121.7265625,33.69140625,14.16015625,43.9453125,40.52734375
121.73046875,-70.3125,-27.83203125,-29.296875,-42.96875
121.734375,-124.51171875,-57.12890625,-79.58984375,-104.4921875
121.73828125,-71.2890625,-38.0859375,-59.08203125,-77.1484375
121.7421875,-30.2734375,-27.83203125,-29.296875,-35.64453125
121.74609375,-11.23046875,-21.97265625,-16.11328125,-10.25390625
121.75,64.453125,20.5078125,26.3671875,54.6875
121.75390625,49.8046875,10.7421875,14.16015625,30.76171875
121.7578125,-56.15234375,-39.55078125,-42.48046875,-51.26953125
121.76171875,-82.51953125,-47.8515625,-47.8515625,-66.40625
121.765625,-72.75390625,-49.8046875,-49.31640625,-62.01171875
121.76953125,-34.66796875,-33.203125,-46.38671875,-14.16015625
121.7734375,6.8359375,-19.04296875,-14.16015625,22.4609375
121.77734375,0.48828125,-36.62109375,-0.48828125,0.48828125
121.78125,-10.7421875,-44.43359375,-9.765625,-13.671875
121.78515625,10.7421875,-51.26953125,18.06640625,-1.46484375
121.7890625,18.06640625,-21.484375,17.578125,3.90625
121.79296875,-24.4140625,-8.7890625,-23.92578125,-28.3203125
121.796875,-44.921875,-37.59765625,-49.8046875,-52.734375
121.80078125,-17.08984375,-23.92578125,-50.78125,-17.578125
121.8046875,10.7421875,-8.7890625,-21.484375,3.90625
121.80859375,-17.578125,-25.87890625,-14.6484375,-26.3671875
121.8125,-45.41015625,-38.0859375,-26.85546875,-38.57421875
121.81640625,-46.875,-55.6640625,-29.296875,-42.48046875
121.8203125,-51.26953125,-61.5234375,-27.34375,-45.41015625
121.82421875,-47.36328125,-65.91796875,-26.3671875,-48.828125
121.828125,-18.5546875,-47.8515625,-11.23046875,-32.2265625
121.83203125,5.37109375,-28.80859375,5.859375,4.8828125
121.8359375,32.2265625,-13.671875,10.25390625,34.1796875
121.83984375,13.671875,-16.6015625,-14.16015625,9.27734375
121.84375,-6.8359375,-25.390625,-20.99609375,-7.8125
121.84765625,-19.04296875,-20.5078125,-22.94921875,-12.6953125
121.8515625,-60.05859375,-43.9453125,-52.24609375,-46.875
121.85546875,-47.8515625,-57.6171875,-44.43359375,-53.7109375
121.859375,-23.92578125,-44.43359375,-17.08984375,-39.55078125
121.86328125,-14.16015625,-32.2265625,-9.27734375,-19.53125
121.8671875,13.671875,3.90625,5.859375,6.34765625
121.87109375,3.90625,9.765625,13.671875,-4.39453125
121.875,-21.97265625,-20.5078125,-7.8125,-27.83203125
121.87890625,-40.52734375,-57.12890625,-39.0625,-50.78125
121.8828125,-59.5703125,-84.9609375,-41.9921875,-71.77734375
121.88671875,-21.484375,-48.33984375,-34.1796875,-34.66796875
121.890625,-4.8828125,-21.97265625,-28.3203125,-17.08984375
121.89453125,-24.4140625,-20.01953125,-16.11328125,-29.78515625
121.8984375,-30.2734375,-28.3203125,-27.34375,-29.78515625
121.90234375,-41.015625,-42.48046875,-31.73828125,-36.62109375
121.90625,2.44140625,-22.94921875,4.39453125,-0.9765625
121.91015625,88.8671875,34.1796875,56.640625,84.47265625
121.9140625,38.57421875,8.7890625,15.625,46.875
121.91796875,-90.8203125,-70.80078125,-58.59375,-59.5703125
121.921875,-112.3046875,-76.171875,-70.80078125,-80.56640625
121.92578125,-63.96484375,-47.36328125,-46.875,-49.8046875
121.9296875,-20.99609375,-45.41015625,-21.484375,-27.83203125
121.93359375,-15.625,-43.45703125,-17.578125,-21.484375
121.9375,20.5078125,4.39453125,13.18359375,31.25
121.94140625,19.53125,2.44140625,3.90625,26.3671875
121.9453125,-31.73828125,-36.1328125,-36.1328125,-26.3671875
121.94921875,-39.0625,-40.0390625,-28.80859375,-16.6015625
121.953125,-2.9296875,-14.16015625,-22.94921875,14.6484375
121.95703125,48.33984375,19.04296875,-14.16015625,51.7578125
121.9609375,2.9296875,-40.0390625,-16.6015625,26.85546875
121.96484375,-49.8046875,-80.078125,-23.4375,-18.06640625
121.96875,-41.50390625,-55.6640625,-18.5546875,-23.92578125
121.97265625,-40.52734375,-34.1796875,-20.01953125,-29.78515625
121.9765625,-45.8984375,-38.57421875,-31.73828125,-40.52734375
121.98046875,-18.06640625,-23.4375,-22.4609375,-10.25390625
121.984375,44.921875,-2.9296875,10.7421875,45.8984375
121.98828125,51.7578125,-29.78515625,-5.37109375,22.94921875
121.9921875,-19.04296875,-45.8984375,-35.15625,-21.484375
121.99609375,-60.05859375,-34.66796875,-42.96875,-25.390625
122.0,-63.96484375,-31.73828125,-53.7109375,-43.9453125
122.00390625,-85.44921875,-58.10546875,-60.546875,-81.0546875
122.0078125,-73.73046875,-63.96484375,-46.38671875,-75.1953125
122.01171875,-36.1328125,-39.0625,-20.01953125,-22.4609375
122.015625,11.71875,-7.32421875,5.37109375,36.1328125
122.01953125,48.828125,29.296875,26.3671875,52.24609375
122.0234375,4.8828125,-2.44140625,0.48828125,-6.8359375
122.02734375,-65.91796875,-62.01171875,-42.96875,-69.3359375
122.03125,-61.5234375,-57.12890625,-34.66796875,-64.94140625
122.03515625,-6.34765625,-38.57421875,-25.390625,-29.78515625
122.0390625,2.44140625,-36.62109375,-33.203125,-17.08984375
122.04296875,-13.18359375,-34.1796875,-23.92578125,-26.3671875
122.046875,1.46484375,-16.6015625,-26.85546875,-19.53125
122.05078125,15.13671875,-24.4140625,-36.62109375,-0.9765625
122.0546875,40.52734375,-13.18359375,-4.8828125,14.16015625
122.05859375,52.24609375,12.6953125,17.08984375,16.6015625
122.0625,15.625,-12.20703125,-12.20703125,0.48828125
122.06640625,-27.83203125,-27.34375,-50.78125,-35.64453125
122.0703125,-43.9453125,-31.73828125,-48.828125,-52.24609375
122.07421875,-34.66796875,-46.875,-26.3671875,-29.296875
122.078125,-28.3203125,-44.43359375,-33.203125,-24.4140625
122.08203125,-22.4609375,-18.06640625,-39.55078125,-26.3671875
122.0859375,-19.53125,2.9296875,-30.76171875,-29.296875
122.08984375,4.39453125,2.9296875,-14.16015625,-10.7421875
122.09375,66.89453125,1.953125,19.04296875,38.0859375
122.09765625,60.05859375,6.34765625,16.6015625,46.38671875
122.1015625,-24.4140625,-8.7890625,-24.4140625,-5.37109375
122.10546875,-76.171875,-24.4140625,-53.22265625,-56.15234375
122.109375,-70.3125,-30.76171875,-48.33984375,-50.78125
122.11328125,-35.64453125,-39.55078125,-25.390625,-14.6484375
122.1171875,0.48828125,-34.1796875,-13.18359375,16.11328125
122.12109375,11.23046875,-7.8125,-17.578125,27.34375
122.125,-11.71875,0.9765625,-26.85546875,4.8828125
122.12890625,-26.85546875,-23.92578125,-38.0859375,-23.92578125
122.1328125,24.4140625,-22.94921875,-10.25390625,27.34375
122.13671875,65.91796875,0.9765625,20.99609375,68.84765625
122.140625,-0.48828125,-25.390625,-9.765625,-2.44140625
122.14453125,-69.3359375,-48.828125,-56.15234375,-60.546875
122.1484375,-77.1484375,-45.8984375,-76.66015625,-57.6171875
122.15234375,-61.03515625,-59.5703125,-50.29296875,-51.7578125
122.15625,-27.83203125,-45.41015625,0.48828125,-24.4140625
122.16015625,6.34765625,-8.7890625,15.13671875,8.30078125
122.1640625,9.765625,-4.39453125,6.8359375,28.80859375
122.16796875,-6.34765625,-30.76171875,-10.25390625,20.99609375
122.171875,-30.76171875,-41.50390625,-22.94921875,-7.8125
122.17578125,-28.80859375,-41.50390625,-23.4375,-19.04296875
122.1796875,-38.0859375,-47.8515625,-48.33984375,-26.85546875
122.18359375,-66.89453125,-64.453125,-62.5,-46.38671875
122.1875,-58.59375,-48.828125,-52.734375,-55.17578125
122.19140625,-45.41015625,-36.62109375,-33.69140625,-47.36328125
122.1953125,-24.90234375,-55.6640625,-18.06640625,-26.85546875
122.19921875,-3.41796875,-60.05859375,-27.83203125,-9.765625
122.203125,41.9921875,-21.484375,-15.625,20.99609375
122.20703125,95.21484375,35.15625,23.92578125,74.21875
122.2109375,48.33984375,13.671875,14.16015625,40.52734375
122.21484375,-38.0859375,-58.10546875,-32.71484375,-30.76171875
122.21875,-75.1953125,-85.9375,-61.5234375,-70.80078125
122.22265625,-63.96484375,-57.6171875,-55.17578125,-72.265625
122.2265625,-52.734375,-34.66796875,-38.0859375,-55.17578125
122.23046875,-21.97265625,-27.34375,-17.578125,-20.01953125
122.234375,13.18359375,-13.671875,-1.953125,13.671875
122.23828125,4.8828125,-22.94921875,-2.9296875,-2.9296875
122.2421875,-20.5078125,-21.97265625,-8.7890625,-27.34375
122.24609375,-37.109375,-16.6015625,-20.5078125,-31.25
122.25,-8.7890625,-5.859375,-20.01953125,-1.953125
122.25390625,-4.8828125,-5.859375,-20.5078125,-0.48828125
122.2578125,-40.52734375,-43.9453125,-38.0859375,-48.828125
122.26171875,-65.91796875,-63.4765625,-47.36328125,-69.3359375
122.265625,-43.9453125,-53.7109375,-34.66796875,-37.59765625
122.26953125,14.6484375,-36.62109375,-1.953125,8.30078125
122.2734375,-10.25390625,-27.34375,3.41796875,-6.8359375
122.27734375,-50.78125,-31.73828125,-26.85546875,-43.45703125
122.28125,-31.73828125,-30.2734375,-38.0859375,-20.01953125
122.28515625,-5.859375,-22.4609375,-7.8125,15.625
122.2890625,-1.46484375,1.953125,5.37109375,5.37109375
122.29296875,-29.78515625,9.765625,-15.13671875,-22.94921875
122.296875,-42.48046875,-11.71875,-20.01953125,-28.3203125
122.30078125,-33.203125,-23.92578125,-24.4140625,-35.15625
122.3046875,-23.92578125,-11.71875,-28.3203125,-24.90234375
122.30859375,-19.04296875,-10.7421875,-34.66796875,-18.06640625
122.3125,-48.33984375,-41.015625,-45.41015625,-40.52734375
122.31640625,-29.296875,-62.5,-37.59765625,-19.04296875
122.3203125,40.52734375,-41.9921875,-0.48828125,39.0625
122.32421875,-0.9765625,-28.80859375,1.46484375,2.9296875
122.328125,-74.70703125,-28.80859375,-23.4375,-56.15234375
122.33203125,-96.19140625,-16.11328125,-34.66796875,-71.77734375
122.3359375,-72.75390625,-25.390625,-28.80859375,-63.96484375
122.33984375,-25.87890625,-30.2734375,-13.671875,-33.69140625
122.34375,-6.8359375,0.0,-12.20703125,-13.18359375
122.34765625,20.5078125,25.87890625,-2.9296875,14.6484375
122.3515625,14.16015625,-5.859375,-14.16015625,3.90625
122.35546875,-15.13671875,-25.390625,-14.6484375,-28.3203125
122.359375,-7.8125,-24.4140625,-10.7421875,-25.87890625
122.36328125,-32.71484375,-43.45703125,-36.1328125,-41.50390625
122.3671875,-42.96875,-61.5234375,-35.15625,-56.640625
122.37109375,-32.2265625,-62.98828125,-27.34375,-41.015625
122.375,-42.48046875,-47.8515625,-32.71484375,-49.31640625
122.37890625,-44.921875,-38.0859375,-33.203125,-50.78125
122.3828125,-36.1328125,-23.92578125,-22.4609375,-14.6484375
122.38671875,12.6953125,-10.7421875,9.765625,27.83203125
122.390625,39.55078125,2.44140625,26.85546875,34.66796875
122.39453125,8.7890625,-0.9765625,7.32421875,22.4609375
122.3984375,-13.671875,-25.87890625,-8.30078125,8.7890625
122.40234375,-27.83203125,-37.59765625,-24.4140625,-20.01953125
122.40625,-36.62109375,-37.109375,-48.828125,-61.03515625
122.41015625,-57.6171875,-32.71484375,-52.24609375,-66.89453125
122.4140625,-66.40625,-33.69140625,-45.41015625,-44.921875
122.41796875,-35.15625,-35.15625,-50.29296875,-37.59765625
122.421875,-25.87890625,-21.484375,-38.0859375,-22.4609375
122.42578125,-26.3671875,-1.46484375,-20.5078125,-10.25390625
122.4296875,-42.48046875,-17.578125,-16.11328125,-15.625
122.43359375,-56.640625,-45.8984375,-19.04296875,-31.25
122.4375,-40.52734375,-43.9453125,-15.625,-36.62109375
122.44140625,-33.69140625,-55.17578125,-4.39453125,-31.73828125
122.4453125,-4.8828125,-43.9453125,3.90625,4.39453125
122.44921875,28.3203125,-14.6484375,7.8125,41.50390625
122.453125,4.39453125,-37.59765625,-11.23046875,-1.953125
122.45703125,-43.9453125,-53.7109375,-38.57421875,-59.5703125
122.4609375,-56.15234375,-37.109375,-41.015625,-60.546875
122.46484375,-19.04296875,-20.01953125,-16.6015625,-21.484375
122.46875,-11.23046875,-15.13671875,-18.5546875,-8.7890625
122.47265625,-30.76171875,-45.41015625,-29.78515625,-18.5546875
122.4765625,-15.625,-48.828125,-4.39453125,-0.48828125
122.48046875,-19.53125,-29.296875,-22.94921875,-2.9296875
122.484375,-42.48046875,-29.78515625,-61.5234375,-32.71484375
122.48828125,-69.3359375,-56.15234375,-55.17578125,-60.546875
122.4921875,-82.03125,-67.3828125,-45.8984375,-65.4296875
122.49609375,-46.38671875,-51.26953125,-27.83203125,-39.0625
122.5,-36.1328125,-49.31640625,-15.625,-24.90234375
122.50390625,-33.203125,-39.0625,2.9296875,-6.34765625
122.5078125,11.71875,-34.66796875,26.85546875,15.625
122.51171875,16.11328125,-25.390625,23.92578125,20.99609375
122.515625,2.9296875,-1.953125,-1.953125,15.13671875
122.51953125,-41.50390625,-24.4140625,-36.62109375,-30.76171875
122.5234375,-86.42578125,-60.546875,-50.78125,-82.03125
122.52734375,-69.82421875,-68.359375,-32.71484375,-70.3125
122.53125,-28.80859375,-49.8046875,-16.6015625,-16.6015625
122.53515625,-19.04296875,-30.76171875,-20.5078125,-8.30078125
122.5390625,-22.4609375,-41.015625,-10.7421875,-24.90234375
122.54296875,-23.92578125,-43.9453125,-12.20703125,-16.6015625
122.546875,-20.99609375,-32.71484375,-29.296875,-2.44140625
122.55078125,20.5078125,-19.53125,-21.484375,33.203125
122.5546875,3.90625,-11.23046875,-24.4140625,17.578125
122.55859375,-39.55078125,-31.73828125,-37.59765625,-41.50390625
122.5625,-41.50390625,-47.36328125,-34.1796875,-41.50390625
122.56640625,-44.43359375,-50.29296875,-29.296875,-32.71484375
122.5703125,-23.4375,-38.57421875,-12.6953125,-10.7421875
122.57421875,3.41796875,-22.94921875,2.44140625,20.99609375
122.578125,-3.41796875,-10.25390625,0.48828125,18.06640625
122.58203125,-35.15625,-39.55078125,-34.1796875,-16.6015625
122.5859375,-29.78515625,-49.31640625,-40.52734375,-27.83203125
122.58984375,14.6484375,-16.11328125,3.90625,18.06640625
122.59375,38.0859375,-6.8359375,19.53125,54.6875
122.59765625,26.85546875,0.9765625,-4.8828125,43.9453125
122.6015625,-31.73828125,-24.4140625,-47.36328125,-17.578125
122.60546875,-88.8671875,-63.4765625,-60.05859375,-73.2421875
122.609375,-83.984375,-63.96484375,-52.734375,-76.66015625
122.61328125,-48.33984375,-26.85546875,-32.71484375,-30.2734375
122.6171875,-14.6484375,-11.23046875,-9.27734375,0.0
122.62109375,8.30078125,-35.64453125,-14.6484375,5.37109375
122.625,8.7890625,-37.109375,-4.39453125,12.6953125
122.62890625,-17.08984375,-33.203125,-6.8359375,-8.7890625
122.6328125,-9.765625,-20.01953125,-12.20703125,-4.39453125
122.63671875,27.83203125,2.44140625,10.7421875,19.53125
122.640625,-14.6484375,-2.44140625,0.48828125,-5.859375
122.64453125,-82.51953125,-31.25,-49.8046875,-60.05859375
122.6484375,-67.87109375,-46.38671875,-58.59375,-69.3359375
122.65234375,-20.99609375,-30.2734375,-26.3671875,-23.4375
122.65625,-29.296875,-34.1796875,-36.62109375,-31.25
122.66015625,-38.57421875,-36.1328125,-42.96875,-57.12890625
122.6640625,5.859375,-19.53125,14.6484375,17.578125
122.66796875,83.49609375,13.671875,63.4765625,97.65625
122.671875,-4.8828125,4.8828125,-3.90625,-0.48828125
122.67578125,-107.91015625,-60.546875,-76.66015625,-118.1640625
122.6796875,-116.69921875,-73.2421875,-74.70703125,-108.88671875
122.68359375,-95.21484375,-49.8046875,-44.921875,-57.12890625
122.6875,-67.87109375,-60.546875,-43.9453125,-51.7578125
122.69140625,-42.48046875,-35.15625,-39.0625,-48.828125
122.6953125,-32.71484375,3.90625,-13.671875,-16.11328125
122.69921875,-30.2734375,-12.20703125,-9.27734375,-14.6484375
122.703125,25.390625,-5.37109375,14.16015625,9.27734375
122.70703125,51.26953125,33.69140625,46.875,77.63671875
122.7109375,25.87890625,13.671875,7.8125,64.453125
122.71484375,-35.15625,-32.71484375,-46.38671875,-23.92578125
122.71875,-103.02734375,-58.59375,-58.59375,-92.7734375
122.72265625,-94.7265625,-46.38671875,-35.64453125,-78.125
122.7265625,-56.640625,-32.2265625,-22.4609375,-28.80859375
122.73046875,-87.40234375,-42.48046875,-43.9453125,-55.17578125
122.734375,-98.14453125,-27.34375,-37.109375,-54.19921875
122.73828125,-47.8515625,4.39453125,-1.953125,4.8828125
122.7421875,-4.8828125,-13.671875,0.9765625,6.8359375
122.74609375,-18.5546875,-38.57421875,-6.34765625,-11.71875
122.75,-72.75390625,-42.48046875,-15.625,-17.578125
122.75390625,-89.84375,-50.78125,-32.2265625,-42.48046875
122.7578125,-36.1328125,-23.4375,-7.8125,0.0
122.76171875,23.4375,14.6484375,15.625,64.453125
122.765625,-9.765625,-26.3671875,-18.5546875,-4.39453125
122.76953125,-29.78515625,-29.296875,-22.94921875,-31.73828125
122.7734375,-38.0859375,0.9765625,12.6953125,29.296875
122.77734375,-83.0078125,-46.38671875,-11.71875,3.41796875
122.78125,-108.3984375,-52.24609375,-45.41015625,-41.9921875
122.78515625,-85.44921875,-12.20703125,-27.83203125,-32.71484375
122.7890625,-69.82421875,-19.04296875,-31.73828125,-31.73828125
122.79296875,-62.5,-29.78515625,-22.4609375,-25.87890625
122.796875,-43.9453125,-16.6015625,0.9765625,-4.39453125
122.80078125,-59.08203125,-29.78515625,-19.53125,-26.85546875
122.8046875,-91.30859375,-41.015625,-36.1328125,-47.36328125
122.80859375,-78.61328125,-39.55078125,-29.78515625,-37.59765625
122.8125,-73.2421875,-46.38671875,-19.53125,-45.41015625
122.81640625,-55.17578125,-41.9921875,-23.4375,-38.0859375
122.8203125,-40.0390625,-28.80859375,-31.73828125,-15.625
122.82421875,-75.1953125,-31.25,-41.015625,-26.85546875
122.828125,-45.41015625,-19.04296875,5.37109375,4.8828125
122.83203125,-34.66796875,-6.34765625,26.3671875,17.08984375
122.8359375,-99.609375,-41.015625,-26.85546875,-53.22265625
122.83984375,-108.88671875,-71.2890625,-58.59375,-90.8203125
122.84375,-87.40234375,-58.10546875,-46.38671875,-59.08203125
122.84765625,-37.59765625,-11.71875,-10.25390625,7.8125
122.8515625,-47.8515625,0.9765625,-21.97265625,0.0
122.85546875,-95.703125,-26.3671875,-43.45703125,-31.25
122.859375,-83.0078125,-46.875,-37.59765625,-35.15625
122.86328125,-59.5703125,-38.0859375,-21.484375,-42.96875
122.8671875,-55.17578125,-25.390625,-5.859375,-28.80859375
122.87109375,-42.48046875,-26.3671875,-6.8359375,-8.30078125
122.875,-51.26953125,-29.296875,-25.87890625,-17.578125
122.87890625,-61.5234375,-48.33984375,-23.92578125,-26.3671875
122.8828125,-51.26953125,-53.22265625,-8.30078125,-9.27734375
122.88671875,-55.17578125,-27.34375,-15.625,7.8125
122.890625,-53.22265625,-21.97265625,-35.64453125,-10.7421875
122.89453125,-37.59765625,-4.39453125,-16.11328125,-20.01953125
122.8984375,-46.875,-8.7890625,6.34765625,-16.6015625
122.90234375,-62.98828125,-28.3203125,-4.39453125,-20.5078125
122.90625,-72.265625,-31.73828125,-31.73828125,-44.43359375
122.91015625,-86.42578125,-43.9453125,-60.546875,-65.4296875
122.9140625,-64.453125,-33.69140625,-26.3671875,-16.6015625
122.91796875,-14.6484375,-2.44140625,21.484375,23.92578125
122.921875,-41.015625,-18.06640625,-11.71875,-14.6484375
122.92578125,-91.30859375,-39.0625,-42.96875,-53.7109375
122.9296875,-108.3984375,-45.41015625,-43.9453125,-75.68359375
122.93359375,-99.609375,-32.71484375,-20.01953125,-72.75390625
122.9375,-74.70703125,-24.90234375,-9.765625,-40.52734375
122.94140625,-18.5546875,-24.4140625,-1.953125,16.11328125
122.9453125,4.39453125,-26.85546875,8.30078125,35.15625
122.94921875,-46.38671875,-34.1796875,-25.87890625,-26.3671875
122.953125,-99.609375,-22.94921875,-58.10546875,-70.80078125
122.95703125,-39.55078125,2.44140625,-22.4609375,-30.76171875
122.9609375,-21.484375,3.41796875,4.39453125,1.953125
122.96484375,-91.30859375,-42.48046875,-36.1328125,-58.10546875
122.96875,-128.90625,-68.84765625,-55.17578125,-88.8671875
122.97265625,-110.3515625,-40.0390625,-28.80859375,-52.734375
122.9765625,-97.65625,-26.3671875,-21.484375,-49.8046875
122.98046875,-55.6640625,-3.41796875,-7.8125,-31.25
122.984375,-1.953125,2.9296875,-1.46484375,8.30078125
122.98828125,15.13671875,12.6953125,3.90625,26.3671875
122.9921875,-21.484375,3.41796875,-0.9765625,-7.8125
122.99609375,-115.72265625,-56.640625,-51.26953125,-92.7734375
123.0,-135.25390625,-70.80078125,-72.75390625,-121.09375
123.00390625,-73.2421875,-37.59765625,-48.33984375,-75.1953125
123.0078125,-31.25,-18.06640625,-16.11328125,-27.34375
123.01171875,-41.50390625,-16.11328125,-14.16015625,-28.3203125
123.015625,-56.15234375,-20.5078125,-26.85546875,-39.0625
123.01953125,-20.99609375,8.7890625,-13.671875,-8.7890625
123.0234375,-51.7578125,-6.34765625,-33.69140625,-24.90234375
123.02734375,-63.96484375,-30.2734375,-41.015625,-35.15625
123.03125,-15.625,-12.20703125,-6.34765625,-2.9296875
123.03515625,-36.1328125,-21.97265625,0.48828125,-13.671875
123.0390625,-38.57421875,-19.53125,-7.32421875,-14.16015625
123.04296875,-36.1328125,-10.7421875,-20.5078125,-28.80859375
123.046875,-80.078125,-16.11328125,-35.64453125,-64.94140625
123.05078125,-93.26171875,-26.3671875,-45.41015625,-77.1484375
123.0546875,-37.59765625,-11.71875,-17.578125,-28.3203125
123.05859375,-23.4375,-17.578125,0.9765625,1.953125
123.0625,-40.52734375,-42.96875,-10.25390625,-21.484375
123.06640625,-22.4609375,-20.01953125,1.953125,-8.30078125
123.0703125,-23.4375,-1.953125,-7.8125,-1.953125
123.07421875,-71.2890625,-20.5078125,-49.8046875,-32.71484375
123.078125,-65.91796875,-29.296875,-59.5703125,-45.8984375
123.08203125,-27.34375,-26.3671875,-43.9453125,-48.33984375
123.0859375,-20.5078125,-14.16015625,-25.390625,-22.94921875
123.08984375,8.30078125,23.4375,0.48828125,23.4375
123.09375,4.8828125,28.80859375,13.671875,25.390625
123.09765625,-67.87109375,-14.6484375,-27.34375,-30.76171875
123.1015625,-80.56640625,-26.3671875,-50.78125,-51.7578125
123.10546875,12.6953125,-0.48828125,7.8125,17.08984375
123.109375,9.765625,-20.99609375,1.953125,24.4140625
123.11328125,-71.77734375,-46.875,-45.8984375,-41.015625
123.1171875,-59.08203125,-19.04296875,-33.203125,-26.3671875
123.12109375,-36.1328125,-11.71875,-36.1328125,-6.8359375
123.125,-7.32421875,-14.6484375,-32.2265625,-13.671875
123.12890625,-13.18359375,-3.41796875,-20.01953125,-20.5078125
123.1328125,-38.57421875,-20.99609375,-27.34375,-39.0625
123.13671875,-42.48046875,-35.64453125,-28.3203125,-47.36328125
123.140625,-28.3203125,-10.25390625,-20.01953125,-25.390625
123.14453125,0.48828125,10.7421875,-13.671875,7.32421875
123.1484375,9.765625,8.7890625,-16.6015625,16.11328125
123.15234375,-16.6015625,-10.7421875,-23.4375,-0.48828125
123.15625,-33.203125,-17.578125,-4.39453125,-5.859375
123.16015625,-47.8515625,-29.296875,-32.71484375,-39.0625
123.1640625,-42.96875,-30.76171875,-50.29296875,-46.875
123.16796875,7.32421875,11.23046875,-1.46484375,19.53125
123.171875,-26.3671875,-3.90625,-15.13671875,11.23046875
123.17578125,-46.875,-44.43359375,-43.45703125,-34.1796875
123.1796875,9.27734375,-25.390625,-2.44140625,-7.32421875
123.18359375,-29.296875,-6.34765625,7.32421875,-22.94921875
123.1875,-86.42578125,-18.5546875,-31.25,-60.05859375
123.19140625,-86.42578125,-19.53125,-35.64453125,-46.38671875
123.1953125,-81.0546875,-36.62109375,-38.0859375,-57.6171875
123.19921875,-51.7578125,-23.92578125,-17.08984375,-39.0625
123.203125,-41.9921875,14.6484375,2.44140625,-3.41796875
123.20703125,-59.08203125,-8.30078125,-31.25,-46.875
123.2109375,-81.54296875,-34.1796875,-51.7578125,-90.33203125
123.21484375,-71.2890625,-6.34765625,-2.44140625,-62.01171875
123.21875,-86.9140625,-5.37109375,20.01953125,-56.15234375
123.22265625,-132.32421875,-21.97265625,-23.4375,-108.88671875
123.2265625,-123.53515625,-18.06640625,-28.3203125,-117.1875
123.23046875,-66.89453125,20.99609375,20.99609375,-36.62109375
123.234375,-28.3203125,35.15625,49.8046875,-7.32421875
123.23828125,-85.44921875,-7.32421875,-3.90625,-90.8203125
123.2421875,-183.59375,-38.0859375,-41.015625,-158.203125
123.24609375,-215.33203125,-51.26953125,-31.25,-174.31640625
123.25,-143.06640625,-16.11328125,6.8359375,-114.2578125
123.25390625,-80.56640625,10.7421875,36.62109375,-62.5
123.2578125,-106.93359375,-2.44140625,10.7421875,-83.0078125
123.26171875,-143.5546875,-3.90625,-24.90234375,-128.41796875
123.265625,-155.76171875,-23.4375,-46.38671875,-168.45703125
123.26953125,-182.6171875,-31.25,-41.015625,-188.96484375
123.2734375,-187.98828125,-20.99609375,-21.484375,-194.3359375
123.27734375,-159.1796875,-0.9765625,1.46484375,-184.08203125
123.28125,-135.25390625,8.7890625,21.484375,-158.203125
123.28515625,-142.08984375,-5.859375,15.625,-148.4375
123.2890625,-170.41015625,-32.2265625,-10.7421875,-165.0390625
123.29296875,-169.921875,-48.828125,-21.97265625,-180.17578125
123.296875,-151.3671875,-45.8984375,-18.5546875,-168.9453125
123.30078125,-69.3359375,-20.01953125,-1.46484375,-100.09765625
123.3046875,7.32421875,-10.7421875,23.92578125,-21.97265625
123.30859375,-24.4140625,-8.30078125,38.57421875,-6.8359375
123.3125,-100.09765625,-30.76171875,-12.6953125,-92.28515625
123.31640625,-127.9296875,-43.45703125,-45.8984375,-133.7890625
123.3203125,-105.46875,-35.15625,-30.2734375,-92.7734375
123.32421875,-87.40234375,-32.71484375,-30.76171875,-70.80078125
123.328125,-36.62109375,-39.0625,-19.04296875,-46.38671875
123.33203125,21.484375,-43.45703125,-7.8125,-21.484375
123.3359375,10.25390625,-25.390625,-11.23046875,-7.8125
123.33984375,-13.671875,-27.34375,-29.78515625,1.953125
123.34375,6.34765625,-47.36328125,-40.52734375,1.46484375
123.34765625,25.390625,-40.0390625,-28.3203125,5.37109375
123.3515625,27.83203125,-29.78515625,-10.25390625,9.765625
123.35546875,34.66796875,-42.48046875,0.0,28.3203125
123.359375,48.828125,-36.62109375,-9.765625,35.15625
123.36328125,39.0625,-23.92578125,-18.5546875,10.7421875
123.3671875,10.7421875,-30.2734375,-29.78515625,-14.6484375
123.37109375,10.25390625,-33.203125,-32.2265625,9.27734375
123.375,46.875,-6.8359375,-5.37109375,62.98828125
123.37890625,46.875,-13.671875,-12.20703125,50.29296875
123.3828125,-9.765625,-47.8515625,-50.29296875,-5.37109375
123.38671875,-28.80859375,-59.08203125,-50.78125,-10.25390625
123.390625,-10.25390625,-53.22265625,-42.96875,18.06640625
123.39453125,38.0859375,-25.390625,-30.76171875,43.45703125
123.3984375,64.94140625,-38.57421875,-17.08984375,59.5703125
123.40234375,50.78125,-54.19921875,-5.37109375,64.94140625
123.40625,20.01953125,-25.87890625,-23.4375,34.1796875
123.41015625,-23.4375,-23.92578125,-55.6640625,-30.76171875
123.4140625,-20.99609375,-25.87890625,-52.734375,-45.41015625
123.41796875,11.71875,-15.13671875,-23.4375,-1.953125
123.421875,25.390625,-10.25390625,-5.859375,39.55078125
123.42578125,31.25,-16.11328125,-8.7890625,47.8515625
123.4296875,18.5546875,-33.203125,-19.04296875,23.92578125
123.43359375,56.640625,-4.39453125,-8.30078125,47.36328125
123.4375,104.4921875,18.06640625,0.48828125,69.82421875
123.44140625,73.2421875,-9.765625,-2.9296875,57.6171875
123.4453125,4.39453125,-49.8046875,-23.4375,6.8359375
123.44921875,-53.22265625,-71.77734375,-80.56640625,-60.546875
123.453125,-32.71484375,-43.45703125,-82.03125,-39.55078125
123.45703125,46.38671875,8.30078125,-15.13671875,43.9453125
123.4609375,50.78125,-2.9296875,-14.6484375,45.8984375
123.46484375,-14.16015625,-20.5078125,-32.2265625,-11.23046875
123.46875,-58.59375,-32.2265625,-40.52734375,-41.9921875
123.47265625,-60.546875,-54.6875,-50.29296875,-43.45703125
123.4765625,-9.27734375,-51.26953125,-15.625,-11.71875
123.48046875,33.203125,-16.6015625,16.6015625,28.80859375
123.484375,47.8515625,25.390625,18.06640625,47.8515625
123.48828125,29.78515625,15.13671875,-20.01953125,36.62109375
123.4921875,-14.16015625,-23.92578125,-59.08203125,-5.859375
123.49609375,-28.80859375,-36.1328125,-60.05859375,-32.71484375
123.5,1.953125,-53.7109375,-37.59765625,-13.18359375
123.50390625,32.71484375,-31.25,2.44140625,37.59765625
123.5078125,26.3671875,18.06640625,6.8359375,49.31640625
123.51171875,-13.18359375,-12.6953125,-18.5546875,1.953125
123.515625,-50.29296875,-53.22265625,-40.0390625,-42.48046875
123.51953125,-47.36328125,-36.1328125,-56.640625,-33.203125
123.5234375,17.08984375,-11.71875,-14.16015625,31.73828125
123.52734375,27.34375,-15.13671875,16.6015625,34.66796875
123.53125,-3.41796875,-12.20703125,5.37109375,1.46484375
123.53515625,7.8125,5.37109375,-16.11328125,4.8828125
123.5390625,-13.671875,-6.8359375,-26.85546875,-2.44140625
123.54296875,-23.4375,-19.53125,-19.53125,-18.06640625
123.546875,-45.8984375,-35.15625,-29.78515625,-46.875
123.55078125,-78.125,-61.03515625,-37.109375,-63.96484375
123.5546875,-36.1328125,-49.8046875,-32.71484375,-30.2734375
123.55859375,6.34765625,-24.4140625,-13.18359375,8.7890625
123.5625,24.90234375,-18.06640625,7.32421875,20.01953125
123.56640625,22.94921875,5.859375,-0.48828125,24.90234375
123.5703125,-15.625,6.8359375,-19.53125,7.8125
123.57421875,-1.46484375,1.953125,-3.41796875,25.87890625
123.578125,25.390625,13.671875,11.23046875,38.0859375
123.58203125,-30.76171875,-16.6015625,-24.90234375,-33.69140625
123.5859375,-60.05859375,-34.66796875,-51.7578125,-71.2890625
123.58984375,-38.0859375,-30.2734375,-40.52734375,-48.828125
123.59375,-45.8984375,-44.921875,-31.25,-33.203125
123.59765625,-9.27734375,-23.4375,-9.27734375,-11.71875
123.6015625,16.6015625,3.41796875,1.953125,6.34765625
123.60546875,-31.73828125,-20.01953125,-15.13671875,-21.484375
123.609375,-44.921875,-26.85546875,-28.80859375,-38.0859375
123.61328125,-51.7578125,-34.66796875,-45.41015625,-59.08203125
123.6171875,-35.15625,-30.2734375,-34.1796875,-39.55078125
123.62109375,44.43359375,-2.44140625,13.671875,37.59765625
123.625,57.12890625,-10.7421875,22.94921875,45.8984375
123.62890625,-11.23046875,-25.390625,-14.6484375,-19.53125
123.6328125,-44.43359375,-32.2265625,-33.69140625,-51.26953125
123.63671875,-37.59765625,-41.9921875,-27.34375,-41.015625
123.640625,-40.0390625,-56.640625,-20.01953125,-32.71484375
123.64453125,-36.1328125,-52.24609375,-14.6484375,-23.92578125
123.6484375,-32.71484375,-50.78125,-13.671875,-33.69140625
123.65234375,-24.90234375,-46.38671875,-21.97265625,-35.64453125
123.65625,15.625,-20.5078125,-31.73828125,0.9765625
123.66015625,38.0859375,5.37109375,-17.578125,36.1328125
123.6640625,18.5546875,-14.16015625,-5.37109375,10.7421875
123.66796875,12.20703125,-30.2734375,-0.48828125,-5.859375
123.671875,21.97265625,-13.671875,14.16015625,30.2734375
123.67578125,35.64453125,10.25390625,22.4609375,46.875
123.6796875,-7.8125,-12.6953125,-7.8125,-4.39453125
123.68359375,-71.77734375,-67.87109375,-49.31640625,-67.3828125
123.6875,-72.265625,-67.87109375,-50.29296875,-68.359375
123.69140625,-46.875,-52.24609375,-43.45703125,-46.38671875
123.6953125,-7.8125,-45.41015625,-41.9921875,-39.0625
123.69921875,0.9765625,-35.64453125,-40.0390625,-13.18359375
123.703125,6.34765625,-9.765625,-13.18359375,18.5546875
123.70703125,20.99609375,14.16015625,13.671875,31.73828125
123.7109375,9.765625,7.32421875,14.6484375,30.76171875
123.71484375,35.15625,10.25390625,13.18359375,47.8515625
123.71875,51.7578125,6.34765625,12.6953125,56.640625
123.72265625,-17.578125,-36.62109375,-29.296875,-19.53125
123.7265625,-66.89453125,-59.08203125,-61.03515625,-69.82421875
123.73046875,-41.015625,-39.55078125,-37.59765625,-46.38671875
123.734375,-19.53125,-10.25390625,-21.484375,-26.85546875
123.73828125,11.71875,-6.34765625,-27.34375,-16.6015625
123.7421875,37.109375,-0.48828125,-21.484375,6.34765625
123.74609375,41.015625,23.4375,18.5546875,69.82421875
123.75,61.5234375,21.97265625,48.33984375,85.44921875
123.75390625,-19.53125,-16.6015625,-2.44140625,-6.34765625
123.7578125,-69.82421875,-18.06640625,-28.3203125,-52.734375
123.76171875,-74.70703125,-31.25,-41.015625,-71.2890625
123.765625,-81.0546875,-68.359375,-52.734375,-71.77734375
123.76953125,-52.734375,-53.22265625,-30.76171875,-41.9921875
123.7734375,-52.24609375,-24.4140625,-21.97265625,-37.59765625
123.77734375,-55.6640625,-22.94921875,-21.97265625,-60.05859375
123.78125,-46.875,-22.94921875,-8.30078125,-52.734375
123.78515625,-53.7109375,-19.04296875,-6.34765625,-35.15625
123.7890625,-33.203125,-19.04296875,-4.39453125,-33.203125
123.79296875,24.4140625,5.859375,27.83203125,12.6953125
123.796875,52.734375,8.30078125,33.69140625,47.36328125
123.80078125,8.7890625,-8.7890625,-16.6015625,5.37109375
123.8046875,-71.77734375,-27.83203125,-54.6875,-66.89453125
123.80859375,-110.83984375,-68.359375,-62.5,-101.07421875
123.8125,-81.54296875,-85.9375,-55.6640625,-100.5859375
123.81640625,-37.59765625,-41.015625,-30.2734375,-66.40625
123.8203125,-45.41015625,-12.6953125,-22.94921875,-28.80859375
123.82421875,-41.015625,-20.99609375,-16.11328125,-19.53125
123.828125,-3.90625,-11.23046875,4.39453125,6.8359375
123.83203125,23.92578125,14.16015625,20.5078125,36.62109375
123.8359375,-5.37109375,19.53125,-5.37109375,16.11328125
123.83984375,-57.12890625,-24.4140625,-46.38671875,-31.25
123.84375,-76.66015625,-71.77734375,-52.24609375,-63.96484375
123.84765625,-49.31640625,-53.22265625,-41.9921875,-49.31640625
123.8515625,-47.36328125,-40.52734375,-39.0625,-36.1328125
123.85546875,-54.19921875,-44.43359375,-29.296875,-33.203125
123.859375,-32.71484375,-27.83203125,-13.18359375,-22.4609375
123.86328125,-2.44140625,-9.765625,-6.34765625,-6.8359375
123.8671875,25.87890625,-13.18359375,6.34765625,23.92578125
123.87109375,81.0546875,0.9765625,30.76171875,71.2890625
123.875,62.01171875,-7.32421875,16.6015625,54.19921875
123.87890625,-61.5234375,-33.203125,-43.9453125,-43.9453125
123.8828125,-108.3984375,-33.203125,-57.6171875,-77.1484375
123.88671875,-98.14453125,-48.33984375,-48.828125,-70.80078125
123.890625,-90.8203125,-59.5703125,-53.22265625,-64.94140625
123.89453125,-48.828125,-30.2734375,-33.203125,-30.76171875
123.8984375,19.53125,20.01953125,7.32421875,18.06640625
123.90234375,21.97265625,20.5078125,1.953125,23.4375
123.90625,-28.3203125,-23.92578125,-37.109375,-20.5078125
123.91015625,-41.015625,-31.73828125,-22.4609375,-20.01953125
123.9140625,-8.30078125,-7.8125,22.4609375,9.765625
123.91796875,-18.06640625,-12.20703125,9.27734375,0.48828125
123.921875,1.46484375,-5.859375,-1.953125,19.53125
123.92578125,25.390625,17.08984375,-10.25390625,29.78515625
123.9296875,-48.33984375,-36.62109375,-40.52734375,-35.15625
123.93359375,-91.796875,-80.078125,-45.8984375,-83.49609375
123.9375,-65.91796875,-62.98828125,-31.25,-65.91796875
123.94140625,-27.83203125,-29.296875,-8.7890625,-15.13671875
123.9453125,0.0,-27.83203125,-12.6953125,6.8359375
123.94921875,-6.34765625,-32.71484375,-18.06640625,1.46484375
123.953125,-30.76171875,-16.6015625,-4.39453125,-12.6953125
123.95703125,6.34765625,20.99609375,15.625,20.01953125
123.9609375,21.97265625,28.3203125,12.6953125,20.5078125
123.96484375,-43.9453125,-8.30078125,-26.3671875,-54.19921875
123.96875,-81.0546875,-45.41015625,-58.59375,-84.9609375
123.97265625,-31.25,-37.59765625,-42.48046875,-43.9453125
123.9765625,33.69140625,1.46484375,-2.44140625,-1.953125
123.98046875,12.6953125,5.37109375,-13.18359375,-10.25390625
123.984375,-42.48046875,-17.08984375,-32.71484375,-28.3203125
123.98828125,-51.26953125,-28.80859375,-31.73828125,-36.62109375
123.9921875,-50.29296875,-37.109375,-26.85546875,-38.57421875
123.99609375,-24.4140625,-14.6484375,-7.32421875,-22.94921875
124.0,5.37109375,9.765625,19.04296875,5.859375
124.00390625,6.34765625,21.97265625,13.671875,22.94921875
124.0078125,-21.484375,7.8125,-10.25390625,-4.39453125
124.01171875,-59.5703125,-32.71484375,-35.15625,-55.17578125
124.015625,-65.4296875,-47.36328125,-34.66796875,-62.5
124.01953125,-8.30078125,-16.11328125,12.20703125,-5.37109375
124.0234375,27.34375,14.6484375,14.6484375,30.2734375
124.02734375,-52.734375,-28.80859375,-56.15234375,-47.8515625
124.03125,-84.47265625,-60.546875,-58.10546875,-88.37890625
124.03515625,-49.31640625,-40.0390625,-22.4609375,-41.50390625
124.0390625,-16.11328125,-6.8359375,-2.9296875,-5.37109375
124.04296875,-38.0859375,-14.6484375,-14.6484375,-25.390625
124.046875,-83.0078125,-49.31640625,-47.36328125,-69.82421875
124.05078125,-66.89453125,-39.0625,-34.1796875,-69.3359375
124.0546875,-42.96875,-21.97265625,-6.8359375,-35.64453125
124.05859375,2.44140625,-15.13671875,8.30078125,14.6484375
124.0625,47.36328125,4.8828125,19.04296875,45.41015625
124.06640625,20.5078125,-6.8359375,0.48828125,21.97265625
124.0703125,-30.76171875,-46.875,-31.25,-13.671875
124.07421875,-66.40625,-61.5234375,-37.59765625,-45.41015625
124.078125,-76.171875,-53.22265625,-39.0625,-61.5234375
124.08203125,-79.1015625,-40.0390625,-47.8515625,-66.89453125
124.0859375,-66.40625,-32.2265625,-48.33984375,-54.6875
124.08984375,-48.828125,-21.97265625,-45.8984375,-38.57421875
124.09375,-18.5546875,-26.3671875,-39.0625,-24.4140625
124.09765625,-0.9765625,-32.2265625,-14.16015625,-2.44140625
124.1015625,-18.5546875,-19.04296875,1.953125,0.0
124.10546875,-37.109375,-19.04296875,-28.3203125,-21.97265625
124.109375,-5.37109375,-8.30078125,-12.20703125,-4.8828125
124.11328125,-10.7421875,-16.11328125,-22.94921875,-20.01953125
124.1171875,-34.66796875,-38.57421875,-58.10546875,-50.78125
124.12109375,-20.5078125,-44.43359375,-23.92578125,-27.34375
124.125,-40.52734375,-57.12890625,-16.11328125,-32.2265625
124.12890625,-53.22265625,-41.9921875,-37.109375,-50.29296875
124.1328125,-32.71484375,-18.06640625,-26.85546875,-31.73828125
124.13671875,-23.4375,-23.92578125,-19.04296875,-19.04296875
124.140625,-35.15625,-33.203125,-34.66796875,-34.66796875
124.14453125,-18.5546875,-15.13671875,-17.08984375,-27.34375
124.1484375,8.7890625,-11.23046875,4.8828125,-7.32421875
124.15234375,4.39453125,-18.06640625,-14.6484375,3.90625
124.15625,23.92578125,2.44140625,-25.390625,32.2265625
124.16015625,-13.671875,-22.94921875,-43.45703125,-19.53125
124.1640625,-75.1953125,-53.22265625,-53.22265625,-78.125
124.16796875,-76.66015625,-42.48046875,-39.55078125,-73.73046875
124.171875,-36.62109375,-26.3671875,-25.390625,-42.96875
124.17578125,-1.46484375,-18.06640625,-22.4609375,-21.97265625
124.1796875,1.953125,-12.20703125,-12.6953125,-17.08984375
124.18359375,1.46484375,-15.13671875,-14.6484375,-20.01953125
124.1875,9.765625,-11.71875,-20.01953125,-14.6484375
124.19140625,20.01953125,-10.25390625,-19.53125,-1.46484375
124.1953125,7.8125,-32.2265625,-35.15625,-26.85546875
124.19921875,-5.859375,-42.48046875,-30.76171875,-41.50390625
124.203125,11.23046875,-20.5078125,4.39453125,-0.9765625
124.20703125,19.04296875,-15.625,-1.953125,10.7421875
124.2109375,-14.16015625,-41.015625,-35.15625,-22.4609375
124.21484375,-20.99609375,-51.26953125,-42.96875,-40.52734375
124.21875,1.46484375,-43.45703125,-30.76171875,-21.484375
124.22265625,20.99609375,-33.69140625,-15.13671875,2.9296875
124.2265625,36.1328125,-34.1796875,-7.8125,11.71875
124.23046875,45.41015625,-34.1796875,1.46484375,25.390625
124.234375,45.8984375,-32.2265625,8.30078125,32.2265625
124.23828125,57.12890625,-33.203125,9.27734375,52.24609375
124.2421875,72.265625,-41.50390625,11.23046875,73.2421875
124.24609375,68.359375,-44.921875,14.16015625,69.3359375
124.25,86.9140625,-39.55078125,20.99609375,78.125
124.25390625,100.09765625,-37.59765625,28.3203125,91.30859375
124.2578125,95.21484375,-35.64453125,30.76171875,104.98046875
124.26171875,97.65625,-41.9921875,28.80859375,109.86328125
124.265625,96.19140625,-44.921875,25.390625,94.23828125
124.26953125,96.6796875,-38.57421875,23.4375,88.37890625
124.2734375,106.4453125,-36.1328125,27.34375,109.375
124.27734375,108.3984375,-35.15625,37.59765625,117.1875
124.28125,108.88671875,-30.76171875,42.48046875,108.3984375
124.28515625,101.07421875,-35.64453125,31.73828125,102.05078125
124.2890625,99.12109375,-39.55078125,17.08984375,102.05078125
124.29296875,117.67578125,-29.296875,6.34765625,104.4921875
124.296875,113.28125,-34.1796875,3.90625,85.9375
124.30078125,104.98046875,-31.73828125,16.11328125,80.56640625
124.3046875,129.39453125,-26.3671875,16.6015625,94.7265625
124.30859375,139.6484375,-35.15625,9.27734375,77.1484375
124.3125,132.32421875,-42.48046875,0.48828125,56.15234375
124.31640625,125.9765625,-35.64453125,-0.9765625,59.5703125
124.3203125,114.74609375,-36.1328125,-6.8359375,61.03515625
124.32421875,109.86328125,-40.52734375,-6.8359375,68.359375
124.328125,115.234375,-28.3203125,-4.39453125,64.94140625
124.33203125,127.44140625,-15.625,-0.48828125,56.640625
124.3359375,129.39453125,-12.6953125,6.34765625,61.5234375
124.33984375,122.0703125,-20.99609375,0.9765625,74.21875
124.34375,114.74609375,-32.71484375,-5.859375,61.5234375
124.34765625,104.98046875,-34.66796875,-8.7890625,36.1328125
124.3515625,102.5390625,-38.0859375,-9.27734375,49.8046875
124.35546875,86.9140625,-44.921875,-12.20703125,58.59375
124.359375,75.1953125,-40.52734375,-12.20703125,43.45703125
124.36328125,78.125,-33.69140625,-7.8125,30.76171875
124.3671875,77.63671875,-42.48046875,-17.08984375,30.2734375
124.37109375,24.4140625,-85.9375,-56.640625,7.8125
124.375,-14.16015625,-142.578125,-106.93359375,-50.29296875
124.37890625,-44.921875,-169.43359375,-140.13671875,-84.9609375
124.3828125,-86.9140625,-171.38671875,-155.76171875,-105.46875
124.38671875,-99.12109375,-171.875,-156.25,-108.3984375
124.390625,-95.703125,-172.8515625,-152.83203125,-77.1484375
124.39453125,-95.21484375,-168.45703125,-140.625,-76.66015625
124.3984375,-110.83984375,-161.1328125,-137.6953125,-111.328125
124.40234375,-117.67578125,-156.25,-140.13671875,-111.81640625
124.40625,-107.421875,-157.71484375,-137.6953125,-100.09765625
124.41015625,-107.91015625,-152.34375,-127.9296875,-98.14453125
124.4140625,-100.5859375,-146.97265625,-121.58203125,-101.07421875
124.41796875,-82.03125,-145.5078125,-119.140625,-80.56640625
124.421875,-104.4921875,-138.671875,-113.28125,-65.91796875
124.42578125,-97.16796875,-122.55859375,-107.91015625,-58.10546875
124.4296875,-69.82421875,-108.3984375,-102.5390625,-49.31640625
124.43359375,-92.28515625,-118.1640625,-93.26171875,-61.5234375
124.4375,-105.46875,-121.09375,-82.03125,-50.29296875
124.44140625,-84.9609375,-104.4921875,-66.40625,-20.01953125
124.4453125,-70.3125,-100.09765625,-52.734375,15.625
124.44921875,-70.80078125,-105.95703125,-38.0859375,41.015625
124.453125,-59.5703125,-111.81640625,-30.2734375,12.6953125
124.45703125,-31.25,-109.375,-29.78515625,23.92578125
124.4609375,-27.34375,-102.05078125,-22.94921875,42.96875
124.46484375,-22.94921875,-96.19140625,-16.11328125,21.97265625
124.46875,-28.80859375,-87.890625,-8.7890625,38.57421875
124.47265625,-44.921875,-76.66015625,-10.25390625,42.96875
124.4765625,-44.43359375,-77.63671875,-7.32421875,30.76171875
124.48046875,-31.25,-79.1015625,2.44140625,33.69140625
124.484375,-58.59375,-83.984375,4.39453125,1.953125
124.48828125,-73.73046875,-84.47265625,7.8125,-19.53125
124.4921875,-69.82421875,-78.61328125,11.23046875,-20.01953125
124.49609375,-81.54296875,-80.078125,19.04296875,-28.3203125
124.5,-78.61328125,-77.1484375,20.5078125,-28.3203125
124.50390625,-84.9609375,-73.73046875,24.4140625,-45.41015625
124.5078125,-90.8203125,-75.1953125,28.80859375,-41.015625
124.51171875,-77.1484375,-71.77734375,24.4140625,-46.38671875
124.515625,-84.47265625,-76.66015625,27.83203125,-73.73046875
124.51953125,-86.9140625,-67.3828125,30.76171875,-53.22265625
124.5234375,-81.54296875,-63.4765625,27.34375,-40.52734375
124.52734375,-86.9140625,-61.5234375,32.71484375,-65.91796875
124.53125,-102.05078125,-66.40625,35.15625,-86.42578125
124.53515625,-114.2578125,-71.2890625,38.57421875,-81.0546875
124.5390625,-97.65625,-60.05859375,45.8984375,-52.24609375
124.54296875,-61.5234375,-54.19921875,50.29296875,-70.80078125
124.546875,-53.7109375,-44.921875,61.03515625,-83.984375
124.55078125,-75.1953125,-46.875,67.3828125,-81.0546875
124.5546875,-81.0546875,-49.8046875,73.73046875,-72.265625
124.55859375,-78.61328125,-48.828125,80.078125,-56.640625
124.5625,-75.1953125,-55.17578125,81.0546875,-68.359375
124.56640625,-90.8203125,-51.26953125,83.984375,-94.7265625
124.5703125,-94.23828125,-50.29296875,78.125,-108.88671875
124.57421875,-87.40234375,-50.78125,73.73046875,-112.3046875
124.578125,-85.44921875,-42.48046875,81.0546875,-117.1875
124.58203125,-91.796875,-39.55078125,92.7734375,-143.5546875
124.5859375,-93.75,-41.9921875,106.93359375,-167.48046875
124.58984375,-106.4453125,-41.015625,134.765625,-178.22265625
124.59375,-129.8828125,-38.0859375,158.203125,-196.77734375
124.59765625,-144.04296875,-38.57421875,157.71484375,-217.28515625
124.6015625,-141.11328125,-38.57421875,159.66796875,-213.37890625
124.60546875,-121.09375,-35.15625,160.15625,-191.89453125
124.609375,-130.37109375,-42.96875,147.4609375,-186.03515625
124.61328125,-144.53125,-33.69140625,141.6015625,-204.1015625
124.6171875,-139.16015625,-22.4609375,135.25390625,-207.03125
124.62109375,-134.27734375,-28.80859375,133.7890625,-172.36328125
124.625,-123.53515625,-21.97265625,129.39453125,-145.01953125
124.62890625,-114.74609375,-16.11328125,118.1640625,-156.73828125
124.6328125,-107.421875,-18.5546875,111.81640625,-160.64453125
124.63671875,-86.9140625,-11.71875,108.3984375,-132.32421875
124.640625,-87.890625,-17.578125,108.3984375,-99.609375
124.64453125,-98.14453125,-26.3671875,109.86328125,-104.00390625
124.6484375,-83.984375,-18.5546875,108.88671875,-123.53515625
124.65234375,-69.82421875,-20.01953125,106.93359375,-98.14453125
124.65625,-44.43359375,-17.578125,105.46875,-61.5234375
124.66015625,-23.4375,-1.46484375,101.07421875,-54.19921875
124.6640625,-40.0390625,1.46484375,90.33203125,-60.05859375
124.66796875,-46.38671875,-11.23046875,80.078125,-42.48046875
124.671875,-25.390625,-19.04296875,78.125,-23.92578125
124.67578125,-33.69140625,-17.08984375,74.70703125,-18.06640625
124.6796875,-43.9453125,-13.18359375,67.87109375,-31.73828125
124.68359375,-29.78515625,-13.671875,63.96484375,-46.38671875
124.6875,-19.04296875,-12.20703125,62.5,-22.4609375
124.69140625,-9.765625,-10.25390625,60.05859375,-2.9296875
124.6953125,-25.390625,-17.08984375,54.19921875,-13.18359375
124.69921875,-37.109375,-20.01953125,53.22265625,-16.11328125
124.703125,-32.2265625,-16.6015625,49.31640625,-9.765625
124.70703125,-20.99609375,-8.7890625,41.9921875,-2.9296875
124.7109375,-5.37109375,-6.34765625,41.50390625,26.85546875
124.71484375,-7.8125,-14.16015625,41.50390625,26.3671875
124.71875,-28.80859375,-20.01953125,36.62109375,-5.859375
124.72265625,-32.71484375,-14.16015625,37.59765625,10.25390625
124.7265625,-20.01953125,-11.23046875,40.52734375,23.92578125
124.73046875,-23.92578125,-17.578125,27.83203125,-4.8828125
124.734375,-45.41015625,-28.80859375,22.94921875,-13.18359375
124.73828125,-42.96875,-32.2265625,30.2734375,9.765625
124.7421875,-29.78515625,-30.76171875,30.76171875,14.6484375
124.74609375,-22.94921875,-27.34375,31.25,6.34765625
124.75,-22.4609375,-22.94921875,35.15625,0.48828125
124.75390625,-40.0390625,-15.625,35.64453125,-1.46484375
124.7578125,-29.296875,-11.71875,33.69140625,19.53125
124.76171875,-20.99609375,-16.11328125,34.66796875,17.08984375
124.765625,-36.1328125,-18.5546875,33.203125,-9.27734375
124.76953125,-23.4375,-6.34765625,27.34375,0.0
124.7734375,-20.5078125,-4.39453125,26.85546875,14.6484375
124.77734375,-28.3203125,-13.18359375,22.4609375,4.8828125
124.78125,-27.34375,-13.18359375,18.5546875,-6.34765625
124.78515625,-20.5078125,-17.578125,20.01953125,-7.8125
124.7890625,-12.6953125,-25.390625,17.578125,1.46484375
124.79296875,-20.99609375,-28.3203125,15.625,1.46484375
124.796875,-29.78515625,-33.203125,19.53125,-8.30078125
124.80078125,-33.203125,-29.296875,20.5078125,8.7890625
124.8046875,-23.4375,-31.25,16.11328125,22.4609375
124.80859375,-14.16015625,-39.55078125,11.23046875,11.23046875
124.8125,-36.1328125,-49.31640625,0.0,-13.671875
124.81640625,-53.7109375,-44.43359375,-2.44140625,-15.13671875
124.8203125,-45.41015625,-37.59765625,2.44140625,-0.48828125
124.82421875,-36.1328125,-37.59765625,2.9296875,8.7890625
124.828125,-32.71484375,-34.66796875,1.46484375,7.8125
124.83203125,-21.484375,-29.78515625,0.9765625,-3.90625
124.8359375,-20.01953125,-28.3203125,11.71875,14.6484375
124.83984375,-27.83203125,-30.2734375,14.6484375,41.50390625
124.84375,-16.11328125,-29.296875,9.765625,29.296875
124.84765625,-13.671875,-21.97265625,10.7421875,1.46484375
124.8515625,-31.73828125,-23.4375,12.20703125,1.46484375
124.85546875,-28.3203125,-27.83203125,21.97265625,39.0625
124.859375,-27.34375,-26.85546875,21.484375,41.015625
124.86328125,-34.66796875,-30.2734375,17.08984375,11.23046875
124.8671875,-33.69140625,-29.296875,10.7421875,8.30078125
124.87109375,-39.55078125,-24.90234375,8.30078125,24.4140625
124.875,-43.9453125,-23.4375,17.08984375,24.4140625
124.87890625,-31.25,-17.08984375,14.6484375,16.11328125
124.8828125,-27.83203125,-23.92578125,0.9765625,8.7890625
124.88671875,-21.97265625,-30.76171875,-2.44140625,8.7890625
124.890625,-21.484375,-33.203125,2.44140625,31.73828125
124.89453125,-27.34375,-26.85546875,4.39453125,45.8984375
124.8984375,-27.83203125,-21.484375,0.9765625,21.97265625
124.90234375,-28.80859375,-24.90234375,1.46484375,12.20703125
124.90625,-34.1796875,-26.85546875,5.37109375,17.578125
124.91015625,-34.66796875,-23.4375,2.9296875,-4.39453125
124.9140625,-36.1328125,-18.06640625,1.953125,-28.3203125
124.91796875,-58.59375,-23.4375,3.41796875,-24.4140625
124.921875,-62.5,-31.73828125,0.48828125,-37.109375
124.92578125,-46.875,-26.85546875,5.859375,-31.25
124.9296875,-39.0625,-26.3671875,7.32421875,-23.4375
124.93359375,-34.1796875,-31.25,5.37109375,-41.50390625
124.9375,-49.8046875,-24.90234375,6.34765625,-23.92578125
124.94140625,-59.08203125,-11.23046875,9.27734375,-7.32421875
124.9453125,-47.8515625,-15.625,4.8828125,-42.96875
124.94921875,-56.640625,-21.484375,3.41796875,-68.359375
124.953125,-60.05859375,-23.4375,9.765625,-38.57421875
124.95703125,-43.45703125,-24.4140625,11.71875,-14.6484375
124.9609375,-53.7109375,-27.83203125,11.71875,-28.80859375
124.96484375,-67.87109375,-38.0859375,5.859375,-49.8046875
124.96875,-66.89453125,-39.55078125,0.0,-59.08203125
124.97265625,-60.05859375,-27.34375,0.0,-41.9921875
124.9765625,-60.546875,-29.296875,-0.9765625,-31.73828125
124.98046875,-62.98828125,-39.0625,-4.8828125,-55.6640625
124.984375,-59.5703125,-41.50390625,-10.25390625,-71.2890625
124.98828125,-54.6875,-29.78515625,-3.90625,-45.8984375
124.9921875,-25.87890625,-19.53125,-2.9296875,-35.15625
124.99609375,-44.921875,-30.76171875,-13.18359375,-55.6640625
125.0,-91.30859375,-38.0859375,-16.11328125,-47.36328125
125.00390625,-79.58984375,-36.62109375,-13.671875,-46.38671875
125.0078125,-65.4296875,-33.203125,-12.6953125,-48.828125
125.01171875,-76.66015625,-29.78515625,-13.671875,-58.10546875
125.015625,-84.47265625,-36.62109375,-16.11328125,-71.2890625
125.01953125,-67.87109375,-33.69140625,-10.25390625,-69.82421875
125.0234375,-53.7109375,-27.83203125,-9.27734375,-48.828125
125.02734375,-54.19921875,-28.3203125,-11.23046875,-29.78515625
125.03125,-82.51953125,-33.69140625,-11.71875,-62.01171875
125.03515625,-76.66015625,-27.34375,-13.18359375,-75.68359375
125.0390625,-49.31640625,-27.83203125,-16.11328125,-61.5234375
125.04296875,-46.875,-29.78515625,-5.859375,-56.640625
125.046875,-58.10546875,-28.80859375,0.9765625,-54.19921875
125.05078125,-74.70703125,-23.4375,-4.39453125,-60.546875
125.0546875,-69.3359375,-24.90234375,-8.30078125,-48.828125
125.05859375,-63.4765625,-34.66796875,-6.8359375,-28.3203125
125.0625,-61.5234375,-31.25,-8.7890625,-37.59765625
125.06640625,-56.15234375,-29.78515625,-13.671875,-59.08203125
125.0703125,-35.15625,-34.1796875,-8.7890625,-49.8046875
125.07421875,-42.48046875,-35.64453125,-3.90625,-38.0859375
125.078125,-60.546875,-38.0859375,-6.8359375,-42.96875
125.08203125,-66.40625,-24.4140625,-6.8359375,-37.109375
125.0859375,-66.89453125,-20.01953125,-11.23046875,-32.71484375
125.08984375,-64.453125,-27.83203125,-11.71875,-32.2265625
125.09375,-59.08203125,-31.25,-10.7421875,-24.90234375
125.09765625,-66.40625,-28.3203125,-11.71875,-23.92578125
125.1015625,-76.66015625,-29.296875,-13.671875,-39.0625
125.10546875,-51.26953125,-25.87890625,-13.18359375,-41.50390625
125.109375,-46.38671875,-30.76171875,-13.671875,-35.64453125
125.11328125,-60.05859375,-34.66796875,-19.53125,-38.57421875
125.1171875,-48.33984375,-25.390625,-18.06640625,-41.015625
125.12109375,-44.921875,-26.85546875,-15.625,-25.390625
125.125,-51.26953125,-32.71484375,-19.53125,-29.78515625
125.12890625,-57.12890625,-28.3203125,-17.578125,-39.0625
125.1328125,-62.98828125,-29.296875,-14.16015625,-44.43359375
125.13671875,-66.89453125,-34.1796875,-12.20703125,-39.55078125
125.140625,-62.01171875,-37.109375,-16.6015625,-35.15625
125.14453125,-44.43359375,-29.78515625,-20.99609375,-23.92578125
125.1484375,-27.83203125,-18.5546875,-14.16015625,-15.13671875
125.15234375,-29.78515625,-26.85546875,-2.9296875,-24.4140625
125.15625,-47.36328125,-27.34375,-2.9296875,-21.484375
125.16015625,-55.17578125,-21.97265625,-12.20703125,-14.16015625
125.1640625,-66.89453125,-32.71484375,-13.671875,-29.296875
125.16796875,-59.08203125,-32.2265625,-3.41796875,-29.296875
125.171875,-63.96484375,-20.99609375,-0.48828125,-18.5546875
125.17578125,-76.66015625,-17.08984375,-3.41796875,-7.8125
125.1796875,-69.3359375,-25.390625,-4.39453125,1.953125
125.18359375,-54.6875,-23.4375,-7.32421875,-13.18359375
125.1875,-37.59765625,-22.4609375,-7.32421875,-20.5078125
125.19140625,-42.96875,-26.85546875,-6.34765625,-8.7890625
125.1953125,-50.29296875,-26.3671875,-8.30078125,-7.8125
125.19921875,-53.22265625,-32.71484375,-5.859375,-16.11328125
125.203125,-45.8984375,-30.76171875,-0.9765625,-19.53125
125.20703125,-27.34375,-24.4140625,-0.9765625,-0.48828125
125.2109375,-33.69140625,-29.296875,-0.9765625,4.8828125
125.21484375,-48.33984375,-27.83203125,1.953125,17.578125
125.21875,-26.85546875,-27.34375,0.48828125,23.4375
125.22265625,-3.90625,-23.4375,-7.32421875,-10.7421875
125.2265625,-21.97265625,-26.85546875,-14.16015625,-32.71484375
125.23046875,-52.734375,-28.3203125,-12.6953125,-9.27734375
125.234375,-65.4296875,-18.5546875,-16.11328125,-20.99609375
125.23828125,-72.265625,-15.13671875,-17.08984375,-38.0859375
125.2421875,-46.38671875,-7.8125,-11.23046875,-18.06640625
125.24609375,-24.90234375,-7.8125,-9.27734375,-25.87890625
125.25,-55.6640625,-9.27734375,-9.27734375,-18.06640625
125.25390625,-58.59375,-2.9296875,-12.20703125,-12.20703125
125.2578125,-28.80859375,-8.30078125,-11.23046875,-19.53125
125.26171875,-31.73828125,-17.578125,-10.25390625,-18.06640625
125.265625,-53.22265625,-19.04296875,-18.06640625,-24.4140625
125.26953125,-43.9453125,-11.23046875,-20.5078125,-22.4609375
125.2734375,-60.05859375,-16.6015625,-20.01953125,-17.08984375
125.27734375,-61.5234375,-23.4375,-26.3671875,-34.1796875
125.28125,-44.43359375,-19.53125,-25.390625,-46.875
125.28515625,-41.50390625,-16.11328125,-23.4375,-61.5234375
125.2890625,-44.43359375,-23.4375,-28.3203125,-59.08203125
125.29296875,-45.8984375,-25.87890625,-31.25,-32.2265625
125.296875,-54.6875,-28.80859375,-27.34375,-21.484375
125.30078125,-55.6640625,-17.08984375,-24.4140625,-31.73828125
125.3046875,-42.96875,-12.20703125,-23.4375,-35.15625
125.30859375,-36.1328125,-19.04296875,-17.578125,-20.01953125
125.3125,-29.296875,-26.85546875,-20.99609375,-34.1796875
125.31640625,-32.71484375,-20.01953125,-26.85546875,-50.29296875
125.3203125,-65.91796875,-21.484375,-28.3203125,-47.36328125
125.32421875,-76.66015625,-28.3203125,-26.3671875,-30.2734375
125.328125,-73.2421875,-21.97265625,-20.99609375,-13.671875
125.33203125,-65.4296875,-21.484375,-22.94921875,-34.1796875
125.3359375,-58.10546875,-22.4609375,-28.3203125,-43.45703125
125.33984375,-55.17578125,-22.4609375,-28.80859375,-14.16015625
125.34375,-55.6640625,-21.97265625,-27.83203125,-20.01953125
125.34765625,-57.12890625,-16.6015625,-24.4140625,-41.50390625
125.3515625,-55.6640625,-23.4375,-25.390625,-37.109375
125.35546875,-54.19921875,-32.2265625,-24.90234375,-22.94921875
125.359375,-44.921875,-32.2265625,-22.4609375,-20.01953125
125.36328125,-41.9921875,-27.34375,-21.97265625,-28.3203125
125.3671875,-54.19921875,-26.3671875,-13.671875,-33.69140625
125.37109375,-46.38671875,-33.69140625,-10.7421875,-21.484375
125.375,-31.25,-31.73828125,-13.18359375,-14.6484375
125.37890625,-26.3671875,-20.01953125,-14.16015625,-11.23046875
125.3828125,-41.50390625,-19.04296875,-15.13671875,-31.25
125.38671875,-63.96484375,-20.5078125,-19.53125,-45.8984375
125.390625,-47.8515625,-20.99609375,-19.53125,-32.2265625
125.39453125,-36.1328125,-26.85546875,-23.92578125,-34.66796875
125.3984375,-48.33984375,-31.25,-31.25,-42.48046875
125.40234375,-43.45703125,-30.2734375,-23.4375,-30.2734375
125.40625,-42.96875,-29.78515625,-20.01953125,-28.3203125
125.41015625,-58.59375,-27.83203125,-22.94921875,-41.015625
125.4140625,-65.91796875,-34.1796875,-23.4375,-51.26953125
125.41796875,-68.359375,-41.50390625,-26.3671875,-47.36328125
125.421875,-56.640625,-37.59765625,-25.87890625,-26.85546875
125.42578125,-52.734375,-31.73828125,-23.92578125,-16.11328125
125.4296875,-53.22265625,-23.4375,-20.5078125,-24.4140625
125.43359375,-52.734375,-20.5078125,-23.4375,-39.55078125
125.4375,-48.33984375,-22.94921875,-30.2734375,-36.62109375
125.44140625,-37.109375,-19.53125,-29.78515625,-17.578125
125.4453125,-47.8515625,-27.34375,-27.34375,-25.390625
125.44921875,-52.734375,-31.73828125,-22.4609375,-35.15625
125.453125,-59.5703125,-32.2265625,-20.01953125,-19.04296875
125.45703125,-47.36328125,-23.4375,-21.484375,-22.94921875
125.4609375,-32.71484375,-23.4375,-21.484375,-26.85546875
125.46484375,-34.1796875,-34.66796875,-25.390625,-34.1796875
125.46875,-45.41015625,-44.43359375,-28.80859375,-32.71484375
125.47265625,-47.8515625,-35.15625,-22.94921875,-18.06640625
125.4765625,-54.6875,-25.87890625,-22.94921875,-24.90234375
125.48046875,-55.17578125,-31.25,-26.85546875,-35.15625
125.484375,-50.29296875,-41.50390625,-28.80859375,-12.20703125
125.48828125,-31.25,-45.41015625,-31.25,1.46484375
125.4921875,-24.4140625,-38.57421875,-31.25,-8.30078125
125.49609375,-32.2265625,-37.59765625,-29.296875,-20.99609375
125.5,-26.85546875,-38.0859375,-25.87890625,-54.19921875
125.50390625,-27.34375,-24.90234375,-22.94921875,-46.38671875
125.5078125,-32.2265625,-25.390625,-23.92578125,-15.13671875
125.51171875,-31.25,-39.55078125,-11.23046875,-10.7421875
125.515625,-35.15625,-47.36328125,-8.7890625,-30.76171875
125.51953125,-53.7109375,-41.9921875,-10.25390625,-35.64453125
125.5234375,-62.01171875,-37.109375,-5.859375,-20.99609375
125.52734375,-48.828125,-39.55078125,-14.16015625,-27.83203125
125.53125,-57.6171875,-39.55078125,-15.13671875,-48.828125
125.53515625,-76.66015625,-42.96875,-10.25390625,-33.203125
125.5390625,-77.1484375,-55.17578125,-12.6953125,-4.39453125
125.54296875,-64.453125,-54.6875,-10.25390625,-19.04296875
125.546875,-63.96484375,-50.78125,-10.25390625,-54.19921875
125.55078125,-79.58984375,-46.875,-10.7421875,-54.6875
125.5546875,-63.4765625,-45.41015625,-12.20703125,-38.0859375
125.55859375,-38.57421875,-47.36328125,-13.18359375,-16.11328125
125.5625,-43.9453125,-45.8984375,-16.11328125,-13.671875
125.56640625,-37.59765625,-44.921875,-16.6015625,-23.92578125
125.5703125,-40.0390625,-42.96875,-14.6484375,-29.296875
125.57421875,-37.109375,-40.52734375,-16.11328125,-14.6484375
125.578125,-37.59765625,-50.78125,-13.671875,-2.9296875
125.58203125,-60.05859375,-51.7578125,-12.6953125,-25.390625
125.5859375,-67.3828125,-40.52734375,-12.6953125,-32.2265625
125.58984375,-63.96484375,-38.57421875,-15.13671875,-21.484375
125.59375,-66.40625,-41.9921875,-21.484375,-19.04296875
125.59765625,-63.96484375,-36.62109375,-23.4375,-32.2265625
125.6015625,-51.7578125,-34.66796875,-18.5546875,-30.76171875
125.60546875,-67.3828125,-48.33984375,-18.5546875,-21.97265625
125.609375,-64.94140625,-50.29296875,-20.99609375,-19.53125
125.61328125,-63.96484375,-38.57421875,-22.4609375,-21.97265625
125.6171875,-87.890625,-39.0625,-27.34375,-35.64453125
125.62109375,-80.56640625,-38.57421875,-26.85546875,-42.48046875
125.625,-71.2890625,-34.66796875,-26.85546875,-18.5546875
125.62890625,-75.68359375,-29.78515625,-27.34375,-22.94921875
125.6328125,-70.80078125,-30.76171875,-26.85546875,-31.25
125.63671875,-67.3828125,-33.203125,-31.73828125,-22.4609375
125.640625,-72.75390625,-31.25,-33.203125,-27.83203125
125.64453125,-55.6640625,-20.5078125,-28.80859375,-28.80859375
125.6484375,-70.3125,-20.01953125,-23.4375,-29.296875
125.65234375,-102.5390625,-37.59765625,-28.80859375,-45.41015625
125.65625,-106.4453125,-37.59765625,-34.1796875,-47.36328125
125.66015625,-88.37890625,-28.3203125,-31.73828125,-37.109375
125.6640625,-85.44921875,-29.78515625,-28.3203125,-25.87890625
125.66796875,-79.1015625,-25.390625,-25.87890625,-25.87890625
125.671875,-71.77734375,-20.5078125,-25.87890625,-17.578125
125.67578125,-76.171875,-16.6015625,-29.296875,-19.53125
125.6796875,-79.58984375,-18.06640625,-36.1328125,-29.296875
125.68359375,-83.0078125,-24.90234375,-36.1328125,-23.92578125
125.6875,-58.10546875,-21.97265625,-26.3671875,-16.11328125
125.69140625,-54.19921875,-20.5078125,-27.34375,-2.9296875
125.6953125,-57.12890625,-23.92578125,-28.3203125,-11.23046875
125.69921875,-47.8515625,-33.69140625,-30.2734375,-31.73828125
125.703125,-62.98828125,-33.69140625,-34.1796875,-26.3671875
125.70703125,-56.640625,-18.5546875,-33.203125,-10.25390625
125.7109375,-44.921875,-22.94921875,-34.1796875,-19.04296875
125.71484375,-44.921875,0.48828125,-32.71484375,-40.0390625
125.71875,-41.50390625,80.56640625,-33.69140625,-35.64453125
125.72265625,-46.38671875,122.55859375,-32.71484375,-20.99609375
125.7265625,-34.66796875,124.51171875,-28.3203125,-20.5078125
125.73046875,-32.2265625,120.60546875,-30.76171875,-19.04296875
125.734375,-45.41015625,114.2578125,-27.34375,-23.4375
125.73828125,-33.203125,125.9765625,-19.04296875,-15.13671875
125.7421875,-25.87890625,121.58203125,-21.97265625,5.37109375
125.74609375,-29.78515625,109.375,-17.08984375,-3.90625
125.75,-34.1796875,104.98046875,-17.578125,-22.4609375
125.75390625,-36.1328125,103.515625,-20.99609375,-14.16015625
125.7578125,-45.41015625,100.5859375,-22.4609375,-7.8125
125.76171875,-44.921875,93.75,-23.92578125,-4.39453125
125.765625,-29.296875,95.21484375,-20.5078125,0.0
125.76953125,-31.25,84.9609375,-22.94921875,3.90625
125.7734375,-26.85546875,81.0546875,-19.04296875,9.765625
125.77734375,-16.6015625,85.44921875,-16.11328125,5.37109375
125.78125,-12.20703125,74.21875,-15.625,-17.08984375
125.78515625,-23.92578125,72.265625,-15.625,-21.484375
125.7890625,-32.2265625,62.98828125,-18.06640625,-4.39453125
125.79296875,-28.3203125,48.828125,-19.53125,3.41796875
125.796875,-30.2734375,49.8046875,-25.390625,-10.7421875
125.80078125,-32.71484375,49.31640625,-24.90234375,-21.484375
125.8046875,-29.78515625,45.8984375,-16.11328125,-1.953125
125.80859375,-10.7421875,45.41015625,-16.11328125,16.11328125
125.8125,-6.8359375,40.0390625,-19.04296875,15.13671875
125.81640625,-17.08984375,31.25,-20.5078125,-1.953125
125.8203125,-24.4140625,27.83203125,-18.5546875,11.71875
125.82421875,-24.90234375,26.85546875,-14.6484375,25.87890625
125.828125,-22.94921875,21.97265625,-13.671875,8.7890625
125.83203125,-12.20703125,29.78515625,-12.20703125,7.32421875
125.8359375,-7.32421875,29.78515625,-16.6015625,10.25390625
125.83984375,-13.18359375,28.3203125,-14.6484375,10.25390625
125.84375,-16.11328125,29.78515625,-12.6953125,16.6015625
125.84765625,-26.3671875,29.78515625,-9.27734375,-1.953125
125.8515625,-22.94921875,31.73828125,-8.30078125,-21.484375
125.85546875,-27.34375,28.80859375,-13.671875,-4.39453125
125.859375,-30.76171875,14.16015625,-16.6015625,14.6484375
125.86328125,-27.83203125,9.765625,-15.625,-14.16015625
125.8671875,-38.0859375,18.5546875,-14.6484375,-20.99609375
125.87109375,-37.109375,16.6015625,-12.6953125,0.0
125.875,-28.3203125,10.25390625,-7.8125,14.6484375
125.87890625,-30.2734375,20.01953125,-2.44140625,8.30078125
125.8828125,-21.97265625,26.85546875,0.48828125,-19.53125
125.88671875,1.46484375,14.6484375,-6.34765625,-17.578125
125.890625,2.44140625,9.765625,-15.625,3.41796875
125.89453125,-13.671875,15.13671875,-13.671875,-7.32421875
125.8984375,-9.765625,14.6484375,-12.6953125,-26.85546875
125.90234375,-17.578125,13.18359375,-19.04296875,-22.94921875
125.90625,-29.296875,12.6953125,-19.53125,-19.04296875
125.91015625,-28.3203125,16.11328125,-14.6484375,-8.7890625
125.9140625,-36.1328125,2.44140625,-13.671875,-10.25390625
125.91796875,-41.015625,-9.27734375,-14.6484375,-22.94921875
125.921875,-26.85546875,-5.859375,-18.06640625,-20.99609375
125.92578125,-20.99609375,5.859375,-22.4609375,-17.08984375
125.9296875,-22.4609375,2.44140625,-25.390625,-23.92578125
125.93359375,-12.20703125,-6.8359375,-26.3671875,-25.87890625
125.9375,-12.6953125,-8.30078125,-27.34375,-27.83203125
125.94140625,-31.73828125,-0.9765625,-25.87890625,-21.484375
125.9453125,-37.109375,-4.8828125,-30.2734375,-18.5546875
125.94921875,-34.1796875,-11.23046875,-38.57421875,-29.78515625
125.953125,-24.90234375,-15.13671875,-35.64453125,-25.87890625
125.95703125,-24.4140625,-7.8125,-30.2734375,-9.27734375
125.9609375,-46.875,-11.23046875,-32.71484375,-24.90234375
125.96484375,-56.640625,-23.92578125,-25.390625,-44.43359375
125.96875,-51.7578125,-11.23046875,-19.53125,-33.69140625
125.97265625,-41.9921875,1.953125,-20.99609375,-16.6015625
125.9765625,-24.4140625,-3.90625,-27.83203125,-20.5078125
125.98046875,-24.4140625,-13.671875,-31.25,-34.66796875
125.984375,-51.7578125,-19.04296875,-30.2734375,-28.80859375
125.98828125,-60.05859375,-14.6484375,-26.85546875,-14.16015625
125.9921875,-46.875,-9.765625,-26.85546875,-0.9765625
125.99609375,-48.33984375,-7.8125,-31.73828125,-10.7421875
126.0,-56.640625,-12.20703125,-30.76171875,-33.69140625
126.00390625,-55.17578125,-15.13671875,-32.71484375,-16.11328125
126.0078125,-44.921875,-12.6953125,-30.76171875,1.46484375
126.01171875,-25.390625,-19.04296875,-27.83203125,-14.16015625
126.015625,-35.15625,-19.53125,-22.94921875,-33.203125
126.01953125,-37.59765625,-9.765625,-26.85546875,-29.296875
126.0234375,-15.13671875,-13.18359375,-34.1796875,-0.48828125
126.02734375,-19.53125,-23.92578125,-30.2734375,9.27734375
126.03125,-37.109375,-31.25,-29.296875,-5.859375
126.03515625,-24.4140625,-20.01953125,-30.2734375,-6.8359375
126.0390625,-14.6484375,-14.6484375,-25.390625,-1.953125
126.04296875,-25.390625,-21.484375,-21.97265625,-0.9765625
126.046875,-24.4140625,-24.4140625,-27.34375,-14.16015625
126.05078125,-26.3671875,-23.4375,-27.34375,-25.390625
126.0546875,-34.1796875,-16.11328125,-22.94921875,-6.8359375
126.05859375,-19.04296875,-25.87890625,-26.3671875,-7.8125
126.0625,-11.71875,-30.2734375,-22.94921875,-17.578125
126.06640625,-26.85546875,-21.484375,-17.578125,-17.578125
126.0703125,-30.2734375,-28.80859375,-27.34375,-16.6015625
126.07421875,-15.13671875,-29.296875,-27.83203125,-4.8828125
126.078125,-26.85546875,-27.34375,-21.484375,-13.18359375
126.08203125,-43.9453125,-26.3671875,-13.671875,-26.3671875
126.0859375,-33.69140625,-16.11328125,-10.25390625,-19.04296875
126.08984375,-34.1796875,-19.04296875,-14.6484375,-1.953125
126.09375,-30.76171875,-20.99609375,-13.18359375,3.90625
126.09765625,-29.296875,-14.6484375,-15.13671875,-13.18359375
126.1015625,-41.9921875,-21.97265625,-17.578125,-20.5078125
126.10546875,-41.50390625,-29.78515625,-15.625,-15.625
126.109375,-30.76171875,-31.73828125,-13.671875,-6.34765625
126.11328125,-15.13671875,-20.5078125,-9.765625,-2.44140625
126.1171875,-4.39453125,-17.578125,-12.20703125,-4.39453125
126.12109375,-14.16015625,-31.73828125,-15.625,20.5078125
126.125,-18.06640625,-41.015625,-16.11328125,21.484375
126.12890625,-31.25,-31.25,-15.625,-22.4609375
126.1328125,-30.2734375,-26.3671875,-17.578125,-22.4609375
126.13671875,-17.08984375,-28.80859375,-21.97265625,-0.48828125
126.140625,-34.66796875,-33.69140625,-25.390625,9.765625
126.14453125,-26.85546875,-31.25,-23.92578125,8.30078125
126.1484375,-20.5078125,-24.4140625,-21.484375,-16.6015625
126.15234375,-34.1796875,-29.78515625,-22.94921875,-26.3671875
126.15625,-15.625,-30.2734375,-23.92578125,1.953125
126.16015625,-11.71875,-18.06640625,-16.6015625,11.71875
126.1640625,-31.25,-25.87890625,-16.11328125,-8.30078125
126.16796875,-41.9921875,-35.64453125,-16.6015625,-27.34375
126.171875,-38.57421875,-28.3203125,-16.11328125,-26.85546875
126.17578125,-40.52734375,-32.71484375,-15.13671875,-10.25390625
126.1796875,-31.25,-26.3671875,-16.11328125,-17.578125
126.18359375,-33.203125,-19.53125,-20.99609375,-28.80859375
126.1875,-39.0625,-28.3203125,-22.4609375,-15.625
126.19140625,-24.4140625,-22.4609375,-16.11328125,2.9296875
126.1953125,-32.2265625,-30.2734375,-21.484375,-5.37109375
126.19921875,-20.99609375,-33.69140625,-20.5078125,-36.1328125
126.203125,-20.01953125,-27.83203125,-20.01953125,-28.80859375
126.20703125,-44.43359375,-34.66796875,-18.5546875,-10.25390625
126.2109375,-42.96875,-44.921875,-18.5546875,-28.80859375
126.21484375,-49.8046875,-42.96875,-31.73828125,-52.734375
126.21875,-62.01171875,-28.3203125,-37.109375,-59.5703125
126.22265625,-49.8046875,-17.578125,-28.3203125,-42.96875
126.2265625,-38.0859375,-22.4609375,-22.4609375,-15.13671875
126.23046875,-34.1796875,-28.3203125,-24.90234375,-3.41796875
126.234375,-19.04296875,-27.34375,-31.73828125,-25.390625
126.23828125,-49.31640625,-14.16015625,-41.50390625,-47.36328125
126.2421875,-51.26953125,-9.27734375,-37.109375,-34.66796875
126.24609375,-26.3671875,-12.6953125,-29.78515625,-29.78515625
126.25,-29.78515625,-16.11328125,-33.203125,-41.9921875
126.25390625,-33.69140625,-10.7421875,-39.0625,-32.2265625
126.2578125,-20.01953125,-14.16015625,-40.52734375,-18.5546875
126.26171875,-0.48828125,-18.5546875,-38.0859375,-20.99609375
126.265625,-13.671875,-22.94921875,-39.0625,-28.3203125
126.26953125,-15.13671875,-21.484375,-33.69140625,-19.04296875
126.2734375,-9.765625,-15.13671875,-35.64453125,-6.8359375
126.27734375,-20.01953125,-19.04296875,-39.0625,-6.34765625
126.28125,-17.08984375,-25.390625,-40.0390625,-36.1328125
126.28515625,-27.83203125,-19.04296875,-35.15625,-36.62109375
126.2890625,-22.94921875,-11.71875,-31.73828125,-9.27734375
126.29296875,-18.5546875,-22.4609375,-33.203125,-8.30078125
126.296875,-18.06640625,-26.85546875,-32.2265625,-33.69140625
126.30078125,-10.7421875,-18.5546875,-30.2734375,-31.73828125
126.3046875,-1.953125,-21.484375,-27.34375,0.48828125
126.30859375,15.625,-20.5078125,-26.3671875,14.16015625
126.3125,-4.39453125,-24.4140625,-29.296875,6.8359375
126.31640625,-28.80859375,-23.4375,-27.83203125,3.41796875
126.3203125,0.0,-12.6953125,-23.92578125,-17.08984375
126.32421875,9.765625,-10.25390625,-22.94921875,-20.99609375
126.328125,3.41796875,-18.06640625,-23.4375,-8.7890625
126.33203125,5.37109375,-19.53125,-24.90234375,-22.4609375
126.3359375,0.48828125,-12.6953125,-26.85546875,-9.765625
126.33984375,11.71875,-15.625,-20.01953125,29.78515625
126.34375,15.625,-19.53125,-20.99609375,32.2265625
126.34765625,7.32421875,-9.765625,-29.296875,13.18359375
126.3515625,-0.48828125,-19.53125,-30.76171875,-4.39453125
126.35546875,5.37109375,-28.3203125,-27.34375,6.34765625
126.359375,20.5078125,-20.01953125,-22.94921875,31.73828125
126.36328125,-13.18359375,-16.6015625,-18.5546875,25.87890625
126.3671875,-36.1328125,-19.04296875,-17.578125,-12.6953125
126.37109375,-19.04296875,-20.5078125,-18.5546875,0.0
126.375,-14.16015625,-15.625,-20.01953125,15.625
126.37890625,-16.11328125,-9.765625,-22.4609375,10.7421875
126.3828125,4.8828125,-14.16015625,-25.390625,4.8828125
126.38671875,6.8359375,-20.99609375,-24.90234375,3.41796875
126.390625,5.859375,-20.5078125,-24.4140625,36.1328125
126.39453125,12.20703125,-14.16015625,-23.4375,25.390625
126.3984375,-6.34765625,-22.4609375,-19.04296875,5.37109375
126.40234375,-20.01953125,-21.484375,-18.06640625,7.8125
126.40625,-6.8359375,-18.5546875,-20.99609375,5.859375
126.41015625,5.859375,-18.5546875,-25.87890625,8.7890625
126.4140625,-27.83203125,-18.06640625,-29.78515625,-1.953125
126.41796875,-39.0625,-19.53125,-32.71484375,-24.4140625
126.421875,-25.87890625,-23.92578125,-34.66796875,-8.30078125
126.42578125,-13.18359375,-23.92578125,-36.1328125,18.5546875
126.4296875,-66.89453125,-22.4609375,-30.2734375,2.44140625
126.43359375,-72.75390625,-26.3671875,-27.34375,-27.34375
126.4375,5.859375,-26.85546875,-28.3203125,-19.53125
126.44140625,-30.2734375,-16.6015625,-21.484375,6.34765625
126.4453125,-77.1484375,-22.4609375,-20.5078125,2.9296875
126.44921875,-53.7109375,-30.76171875,-28.3203125,-16.11328125
126.453125,-14.6484375,-24.90234375,-28.3203125,-16.11328125
126.45703125,-18.5546875,-18.06640625,-17.578125,-1.953125
126.4609375,-67.3828125,-14.6484375,-21.97265625,-12.20703125
126.46484375,-57.12890625,-21.97265625,-26.3671875,-43.45703125
126.46875,-34.1796875,-29.78515625,-27.83203125,-65.4296875
126.47265625,-85.9375,-30.76171875,-18.06640625,-57.6171875
126.4765625,-93.26171875,-38.0859375,-8.7890625,-34.66796875
126.48046875,-65.91796875,-41.9921875,-11.23046875,-44.921875
126.484375,-43.9453125,-23.4375,-19.04296875,-83.49609375
126.48828125,-67.87109375,-11.23046875,-24.90234375,-100.5859375
126.4921875,-114.2578125,-29.296875,-15.625,-118.65234375
126.49609375,-77.63671875,-22.4609375,-8.30078125,-145.01953125
126.5,-104.4921875,-13.18359375,-3.90625,-141.11328125
126.50390625,-207.51953125,-39.55078125,7.8125,-135.25390625
126.5078125,-186.5234375,-20.01953125,20.99609375,-149.4140625
126.51171875,-141.6015625,2.9296875,3.90625,-192.3828125
126.515625,-226.5625,-40.0390625,-35.64453125,-272.4609375
126.51953125,-304.6875,-52.734375,-56.15234375,-308.59375
126.5234375,-302.24609375,-41.9921875,-71.2890625,-325.68359375
126.52734375,-283.203125,-20.99609375,-92.28515625,-333.49609375
126.53125,-314.453125,9.765625,-86.9140625,-300.78125
126.53515625,-284.1796875,8.7890625,-55.6640625,-282.71484375
126.5390625,-290.52734375,-12.6953125,-19.04296875,-293.45703125
126.54296875,-360.3515625,-38.57421875,-20.99609375,-333.984375
126.546875,-274.4140625,-46.38671875,-38.0859375,-315.4296875
126.55078125,-233.88671875,-25.87890625,-34.1796875,-264.6484375
126.5546875,-265.625,-32.71484375,-39.55078125,-276.3671875
126.55859375,-308.10546875,-59.08203125,-58.10546875,-307.12890625
126.5625,-278.3203125,-50.29296875,-68.84765625,-285.64453125
126.56640625,-273.92578125,-32.71484375,-55.17578125,-253.90625
126.5703125,-238.28125,-5.859375,-33.203125,-202.63671875
126.57421875,-237.3046875,-39.0625,-54.6875,-175.78125
126.578125,-256.34765625,-80.56640625,-69.82421875,-223.14453125
126.58203125,-237.79296875,-59.5703125,-71.2890625,-259.765625
126.5859375,-252.44140625,-45.8984375,-67.3828125,-226.5625
126.58984375,-186.5234375,-44.921875,-40.52734375,-134.27734375
126.59375,-139.16015625,-47.36328125,-36.1328125,-107.421875
126.59765625,-226.07421875,-57.6171875,-71.2890625,-152.83203125
126.6015625,-205.56640625,-35.15625,-89.84375,-150.87890625
126.60546875,-150.390625,-33.203125,-70.3125,-109.375
126.609375,-187.98828125,-118.1640625,-92.28515625,-120.1171875
126.61328125,-112.79296875,-185.546875,-69.82421875,-14.6484375
126.6171875,-37.109375,-208.984375,-3.41796875,49.8046875
126.62109375,-82.03125,-267.578125,-76.66015625,-55.6640625
126.625,-127.44140625,-252.9296875,-204.58984375,-112.3046875
126.62890625,-122.0703125,-191.89453125,-208.0078125,-78.61328125
126.6328125,-92.7734375,-190.91796875,-122.55859375,-34.66796875
126.63671875,-123.53515625,-246.58203125,-97.16796875,-69.82421875
126.640625,-45.8984375,-247.0703125,-67.3828125,-16.6015625
126.64453125,-20.01953125,-195.3125,-73.2421875,30.76171875
126.6484375,-80.078125,-195.80078125,-153.3203125,-25.87890625
126.65234375,49.8046875,-172.8515625,-166.015625,16.6015625
126.65625,130.37109375,-102.05078125,-177.734375,133.30078125
126.66015625,71.2890625,-101.07421875,-212.40234375,126.46484375
126.6640625,-16.6015625,-135.25390625,-212.890625,58.10546875
126.66796875,10.25390625,-129.8828125,-229.98046875,47.8515625
126.671875,156.73828125,-74.21875,-224.609375,169.921875
126.67578125,86.9140625,-101.07421875,-225.09765625,208.984375
126.6796875,-15.625,-145.99609375,-287.59765625,84.47265625
126.68359375,51.7578125,-93.75,-334.9609375,85.9375
126.6875,42.48046875,-109.375,-392.08984375,85.44921875
126.69140625,5.859375,-141.6015625,-433.10546875,36.1328125
126.6953125,-7.32421875,-110.3515625,-447.75390625,43.45703125
126.69921875,73.2421875,-63.96484375,-353.02734375,157.71484375
126.703125,175.78125,-50.29296875,-287.59765625,218.75
126.70703125,128.90625,-54.6875,-353.515625,201.171875
126.7109375,133.30078125,-28.3203125,-354.4921875,196.2890625
126.71484375,97.65625,-27.34375,-350.09765625,148.92578125
126.71875,-2.9296875,-103.02734375,-396.97265625,76.66015625
126.72265625,11.23046875,-107.421875,-362.3046875,83.984375
126.7265625,116.69921875,-54.19921875,-324.70703125,97.65625
126.73046875,97.16796875,-39.0625,-312.01171875,112.3046875
126.734375,90.8203125,-1.953125,-290.0390625,193.359375
126.73828125,195.80078125,43.9453125,-245.1171875,270.5078125
126.7421875,237.3046875,53.7109375,-201.171875,289.55078125
126.74609375,183.10546875,24.4140625,-245.1171875,250.48828125
126.75,155.2734375,-35.15625,-250.0,201.171875
126.75390625,175.78125,-33.203125,-196.2890625,195.3125
126.7578125,117.67578125,-38.57421875,-235.83984375,152.34375
126.76171875,81.54296875,-48.33984375,-267.578125,136.23046875
126.765625,126.953125,-9.765625,-250.0,165.52734375
126.76953125,163.57421875,17.08984375,-265.13671875,182.12890625
126.7734375,216.30859375,31.25,-218.26171875,210.44921875
126.77734375,190.91796875,10.7421875,-187.01171875,206.0546875
126.78125,229.4921875,11.23046875,-191.89453125,202.1484375
126.78515625,293.9453125,62.01171875,-158.69140625,263.671875
126.7890625,221.19140625,83.0078125,-164.55078125,275.390625
126.79296875,192.87109375,42.48046875,-165.0390625,254.39453125
126.796875,108.88671875,-34.1796875,-198.2421875,169.921875
126.80078125,71.2890625,-45.41015625,-215.8203125,86.42578125
126.8046875,196.77734375,-12.20703125,-183.59375,113.76953125
126.80859375,145.99609375,-0.48828125,-167.48046875,140.13671875
126.8125,102.05078125,1.953125,-174.8046875,152.34375
126.81640625,169.43359375,12.20703125,-140.625,182.12890625
126.8203125,203.125,26.3671875,-82.51953125,218.26171875
126.82421875,191.89453125,7.8125,-101.5625,224.12109375
126.828125,264.6484375,50.78125,-50.78125,258.7890625
126.83203125,202.1484375,54.19921875,-42.96875,195.3125
126.8359375,46.875,-29.296875,-145.99609375,34.66796875
126.83984375,46.38671875,-45.8984375,-164.55078125,27.83203125
126.84375,35.15625,-13.18359375,-103.515625,80.56640625
126.84765625,56.640625,0.48828125,-98.14453125,39.0625
126.8515625,80.56640625,-12.20703125,-89.84375,51.7578125
126.85546875,108.88671875,-4.8828125,-63.4765625,78.61328125
126.859375,89.84375,7.32421875,-65.4296875,81.0546875
126.86328125,107.91015625,48.828125,-27.83203125,115.72265625
126.8671875,110.3515625,32.2265625,-40.0390625,77.1484375
126.87109375,20.99609375,-33.203125,-77.63671875,34.66796875
126.875,79.1015625,-17.578125,-46.875,66.40625
126.87890625,89.84375,-0.9765625,-45.8984375,49.8046875
126.8828125,11.71875,11.23046875,-71.77734375,13.671875
126.88671875,24.4140625,8.7890625,-98.14453125,-17.08984375
126.890625,42.96875,-13.671875,-103.02734375,4.8828125
126.89453125,39.0625,-23.4375,-63.96484375,37.59765625
126.8984375,41.015625,-26.85546875,-48.33984375,6.34765625
126.90234375,18.5546875,-12.6953125,-57.12890625,-0.48828125
126.90625,22.4609375,-1.46484375,-62.5,10.25390625
126.91015625,36.62109375,-5.859375,-73.2421875,-20.99609375
126.9140625,98.6328125,13.18359375,-51.7578125,-21.484375
126.91796875,29.296875,5.859375,-17.578125,-8.7890625
126.921875,-41.9921875,-4.8828125,-37.109375,-20.5078125
126.92578125,-6.8359375,24.4140625,-47.8515625,-11.23046875
126.9296875,57.12890625,46.875,-29.296875,33.203125
126.93359375,52.734375,6.8359375,-65.4296875,-4.8828125
126.9375,-41.9921875,-17.08984375,-75.68359375,-35.15625
126.94140625,-73.2421875,-17.578125,-64.94140625,-53.22265625
126.9453125,-24.90234375,-71.2890625,-39.0625,-35.64453125
126.94921875,10.25390625,-38.57421875,-14.16015625,-13.18359375
126.953125,9.765625,23.4375,-50.29296875,-53.7109375
126.95703125,-4.8828125,19.53125,-52.734375,-48.828125
126.9609375,0.0,2.44140625,-50.78125,-44.921875
126.96484375,111.328125,28.80859375,-38.57421875,2.44140625
126.96875,209.9609375,80.078125,25.87890625,93.75
126.97265625,110.3515625,30.2734375,8.30078125,61.03515625
126.9765625,-12.6953125,-58.10546875,-59.5703125,-6.34765625
126.98046875,-32.71484375,-43.9453125,-71.77734375,-56.15234375
126.984375,5.37109375,30.76171875,-53.22265625,-40.0390625
126.98828125,47.36328125,27.83203125,-34.66796875,-15.625
126.9921875,45.41015625,15.625,-19.53125,16.6015625
126.99609375,10.25390625,6.34765625,-20.01953125,-33.203125
127.0,39.55078125,-7.8125,-44.43359375,-105.46875
127.00390625,64.453125,0.0,-47.8515625,-62.01171875
127.0078125,54.6875,-4.8828125,-29.78515625,-11.23046875
127.01171875,37.109375,12.20703125,-25.87890625,-5.37109375
127.015625,9.765625,12.20703125,-23.92578125,7.8125
127.01953125,53.22265625,24.90234375,-7.8125,36.62109375
127.0234375,76.66015625,44.43359375,-16.11328125,9.765625
127.02734375,68.359375,25.87890625,-15.625,-25.87890625
127.03125,63.4765625,10.7421875,-22.94921875,-10.7421875
127.03515625,81.0546875,38.57421875,-30.2734375,37.59765625
127.0390625,34.1796875,18.06640625,-43.45703125,-6.8359375
127.04296875,-11.23046875,-24.4140625,-48.33984375,-82.03125
127.046875,17.08984375,-23.4375,-39.0625,-78.61328125
127.05078125,63.4765625,20.5078125,-7.32421875,-0.48828125
127.0546875,110.3515625,54.6875,36.62109375,81.54296875
127.05859375,71.77734375,41.50390625,3.41796875,30.76171875
127.0625,-2.9296875,15.13671875,-43.9453125,-48.33984375
127.06640625,6.8359375,-16.6015625,-46.38671875,-55.17578125
127.0703125,2.9296875,-21.484375,-51.26953125,-49.8046875
127.07421875,15.13671875,-0.9765625,-31.73828125,-25.390625
127.078125,63.96484375,4.39453125,-0.48828125,19.04296875
127.08203125,41.9921875,8.30078125,-22.94921875,30.2734375
127.0859375,63.96484375,8.7890625,4.8828125,33.203125
127.08984375,91.796875,-0.9765625,55.17578125,31.25
127.09375,41.9921875,-24.90234375,13.18359375,-32.2265625
127.09765625,26.3671875,-20.99609375,-36.62109375,-82.03125
127.1015625,-6.34765625,-6.34765625,-40.0390625,-72.265625
127.10546875,-21.484375,-3.41796875,-21.484375,-18.5546875
127.109375,15.13671875,8.7890625,-0.48828125,8.30078125
127.11328125,21.484375,-7.32421875,-1.46484375,-15.625
127.1171875,10.7421875,0.0,7.32421875,-16.6015625
127.12109375,17.08984375,4.8828125,18.5546875,8.7890625
127.125,30.76171875,-11.23046875,9.765625,3.90625
127.12890625,12.6953125,-11.71875,-4.8828125,-22.94921875
127.1328125,-11.71875,-14.6484375,-15.625,-9.27734375
127.13671875,63.96484375,31.25,21.97265625,60.546875
127.140625,115.234375,47.36328125,41.50390625,75.68359375
127.14453125,23.92578125,-4.8828125,14.6484375,-2.9296875
127.1484375,-27.34375,-16.11328125,-5.37109375,-66.40625
127.15234375,15.625,-6.8359375,-5.859375,-53.7109375
127.15625,11.23046875,-22.94921875,-0.9765625,-18.5546875
127.16015625,-18.06640625,-41.50390625,-1.46484375,-33.69140625
127.1640625,19.53125,-24.90234375,-0.9765625,-32.71484375
127.16796875,53.7109375,-10.25390625,17.578125,18.06640625
127.171875,49.8046875,-3.41796875,8.7890625,22.4609375
127.17578125,30.2734375,6.34765625,9.765625,14.16015625
127.1796875,-19.04296875,-5.859375,20.99609375,11.71875
127.18359375,-35.64453125,-24.90234375,-12.20703125,-12.20703125
127.1875,21.97265625,-29.296875,-43.9453125,4.8828125
127.19140625,71.77734375,-14.16015625,0.0,55.6640625
127.1953125,60.05859375,-0.9765625,32.71484375,76.66015625
127.19921875,-6.8359375,-16.11328125,2.9296875,36.62109375
127.203125,-40.52734375,-37.109375,-38.57421875,-6.8359375
127.20703125,1.46484375,-23.4375,-41.50390625,34.1796875
127.2109375,-10.25390625,-23.4375,-2.9296875,46.875
127.21484375,-34.1796875,-39.55078125,-13.671875,-4.8828125
127.21875,10.25390625,-31.25,-37.59765625,-27.83203125
127.22265625,1.953125,-23.92578125,-6.8359375,28.3203125
127.2265625,1.953125,2.44140625,30.2734375,108.88671875
127.23046875,2.44140625,4.39453125,10.7421875,59.08203125
127.234375,-20.01953125,-16.6015625,-22.4609375,-1.953125
127.23828125,-30.76171875,-4.8828125,-21.484375,21.97265625
127.2421875,-3.41796875,-4.8828125,8.30078125,68.359375
127.24609375,38.57421875,-11.71875,16.6015625,59.5703125
127.25,-8.7890625,-8.7890625,-7.32421875,6.8359375
127.25390625,11.23046875,-27.34375,-20.01953125,0.9765625
127.2578125,24.4140625,-25.87890625,-4.39453125,62.5
127.26171875,10.25390625,11.71875,17.08984375,82.03125
127.265625,20.99609375,29.296875,26.85546875,77.1484375
127.26953125,-7.8125,6.8359375,0.9765625,48.828125
127.2734375,-58.59375,-32.2265625,-40.52734375,6.34765625
127.27734375,-63.96484375,-48.828125,-43.45703125,5.859375
127.28125,7.8125,-20.5078125,-0.48828125,44.921875
127.28515625,-0.9765625,-17.08984375,0.48828125,53.7109375
127.2890625,-28.3203125,-59.5703125,-39.55078125,24.90234375
127.29296875,-16.6015625,-76.66015625,-51.7578125,20.5078125
127.296875,-27.83203125,-34.66796875,-27.83203125,33.203125
127.30078125,8.30078125,15.625,-14.6484375,34.1796875
127.3046875,-24.4140625,9.27734375,-33.203125,16.6015625
127.30859375,-63.4765625,-4.39453125,-4.39453125,45.8984375
127.3125,-12.6953125,2.44140625,23.92578125,56.15234375
127.31640625,-18.5546875,5.37109375,19.53125,34.1796875
127.3203125,-34.66796875,-2.44140625,7.8125,26.85546875
127.32421875,-18.06640625,-24.90234375,-21.97265625,-10.25390625
127.328125,-1.953125,-18.5546875,-9.765625,18.5546875
127.33203125,-1.46484375,-3.41796875,22.94921875,57.6171875
127.3359375,-17.08984375,-6.8359375,11.23046875,59.08203125
127.33984375,29.296875,27.34375,27.34375,95.703125
127.34375,67.3828125,38.57421875,41.50390625,110.83984375
127.34765625,-46.875,-30.2734375,-23.92578125,0.0
127.3515625,-133.7890625,-48.828125,-56.15234375,-62.5
127.35546875,-76.171875,-9.27734375,-34.66796875,-31.73828125
127.359375,-75.1953125,-45.8984375,-39.0625,-63.4765625
127.36328125,-119.62890625,-60.546875,-37.109375,-78.125
127.3671875,-95.21484375,-13.18359375,-25.87890625,-45.41015625
127.37109375,-24.90234375,1.46484375,-2.9296875,17.08984375
127.375,41.015625,8.30078125,22.94921875,66.40625
127.37890625,45.41015625,43.45703125,-8.30078125,64.94140625
127.3828125,34.1796875,27.83203125,-22.4609375,45.8984375
127.38671875,33.203125,-1.953125,0.48828125,31.25
127.390625,-52.734375,-17.578125,-34.1796875,4.8828125
127.39453125,-145.01953125,-57.12890625,-71.2890625,-68.84765625
127.3984375,-148.92578125,-62.01171875,-64.453125,-111.81640625
127.40234375,-106.4453125,-34.66796875,-40.52734375,-76.66015625
127.40625,-35.64453125,5.37109375,0.48828125,16.11328125
127.41015625,12.20703125,44.921875,36.1328125,74.21875
127.4140625,-5.859375,7.8125,4.8828125,26.3671875
127.41796875,-45.8984375,-24.90234375,-29.296875,-15.13671875
127.421875,-56.15234375,-23.92578125,-17.08984375,-10.25390625
127.42578125,-13.18359375,3.41796875,-7.8125,-1.953125
127.4296875,-30.76171875,10.25390625,-17.08984375,-19.53125
127.43359375,-18.06640625,3.90625,-16.6015625,0.9765625
127.4375,27.83203125,30.2734375,12.6953125,71.77734375
127.44140625,58.10546875,44.921875,21.97265625,81.54296875
127.4453125,50.78125,15.13671875,-13.671875,34.1796875
127.44921875,-70.80078125,-25.390625,-49.31640625,-30.2734375
127.453125,-91.30859375,-25.87890625,-48.828125,-35.15625
127.45703125,-19.53125,1.953125,-24.90234375,19.04296875
127.4609375,2.44140625,13.18359375,-3.90625,40.52734375
127.46484375,10.7421875,0.9765625,-2.9296875,9.765625
127.46875,27.34375,2.9296875,-17.578125,37.59765625
127.47265625,64.94140625,36.1328125,-15.625,90.33203125
127.4765625,84.47265625,27.34375,-4.39453125,65.4296875
127.48046875,-40.52734375,-45.8984375,-32.71484375,-16.11328125
127.484375,-139.6484375,-68.359375,-57.12890625,-83.49609375
127.48828125,-62.01171875,-24.4140625,-40.52734375,-57.12890625
127.4921875,28.80859375,1.953125,-24.4140625,48.33984375
127.49609375,43.9453125,29.296875,-8.30078125,121.09375
127.5,57.6171875,54.6875,10.25390625,101.07421875
127.50390625,35.15625,33.203125,6.8359375,31.25
127.5078125,-22.4609375,-28.3203125,-10.7421875,-3.41796875
127.51171875,-48.828125,-46.875,-0.9765625,33.203125
127.515625,-41.015625,-30.2734375,-16.6015625,30.76171875
127.51953125,-10.25390625,-13.18359375,-21.484375,33.203125
127.5234375,-8.30078125,2.9296875,-3.90625,73.73046875
127.52734375,-65.91796875,-14.6484375,-41.015625,29.296875
127.53125,-61.03515625,-25.390625,-59.5703125,-8.7890625
127.53515625,11.71875,-12.6953125,-29.78515625,30.2734375
127.5390625,21.484375,2.44140625,-4.39453125,96.19140625
127.54296875,-26.3671875,-0.48828125,-6.8359375,96.19140625
127.546875,-46.38671875,-4.8828125,-14.6484375,54.6875
127.55078125,-40.52734375,-15.625,-34.66796875,22.94921875
127.5546875,-31.25,-23.92578125,-57.6171875,14.16015625
127.55859375,8.7890625,-3.90625,-9.27734375,76.66015625
127.5625,2.9296875,-15.13671875,18.5546875,113.76953125
127.56640625,-39.55078125,-3.90625,-12.6953125,72.75390625
127.5703125,-46.38671875,3.41796875,-46.38671875,30.76171875
127.57421875,-79.58984375,-28.80859375,-58.59375,27.34375
127.578125,-44.43359375,-9.765625,-31.73828125,69.3359375
127.58203125,41.50390625,13.671875,-26.85546875,83.49609375
127.5859375,20.99609375,-6.8359375,-23.4375,81.0546875
127.58984375,33.69140625,-6.8359375,-4.39453125,108.88671875
127.59375,73.2421875,-1.953125,-29.296875,89.35546875
127.59765625,18.06640625,-8.30078125,-45.41015625,80.56640625
127.6015625,-20.01953125,-11.23046875,-26.85546875,99.609375
127.60546875,6.34765625,-20.99609375,-17.578125,100.5859375
127.609375,-8.30078125,-32.2265625,-18.06640625,87.890625
127.61328125,-30.2734375,-24.4140625,-33.69140625,56.15234375
127.6171875,-36.1328125,-45.8984375,-44.43359375,25.87890625
127.62109375,25.87890625,-52.24609375,-13.671875,61.03515625
127.625,4.8828125,-39.55078125,-8.7890625,63.96484375
127.62890625,-62.5,-53.7109375,-41.9921875,21.484375
127.6328125,-23.92578125,-22.94921875,-28.3203125,63.96484375
127.63671875,79.58984375,45.8984375,8.7890625,156.25
127.640625,66.89453125,11.23046875,-12.20703125,118.65234375
127.64453125,-33.203125,-91.30859375,-59.08203125,14.6484375
127.6484375,-56.640625,-113.76953125,-53.22265625,-22.94921875
127.65234375,-14.6484375,-60.05859375,-12.20703125,48.828125
127.65625,67.87109375,-25.87890625,34.1796875,151.3671875
127.66015625,51.26953125,-83.0078125,25.87890625,104.4921875
127.6640625,-67.3828125,-195.3125,-47.8515625,-19.53125
127.66796875,-106.93359375,-256.8359375,-95.21484375,-68.84765625
127.671875,-93.26171875,-234.86328125,-82.51953125,-28.3203125
127.67578125,-12.20703125,-172.8515625,-13.18359375,69.82421875
127.6796875,29.78515625,-160.15625,16.6015625,100.5859375
127.68359375,-48.828125,-195.80078125,-29.78515625,22.94921875
127.6875,-70.3125,-205.078125,-51.26953125,-15.625
127.69140625,26.85546875,-168.9453125,-20.01953125,20.5078125
127.6953125,73.73046875,-125.48828125,15.13671875,107.421875
127.69921875,45.41015625,-107.421875,27.34375,134.765625
127.703125,6.8359375,-137.6953125,2.44140625,56.15234375
127.70703125,-34.66796875,-159.1796875,-26.3671875,11.71875
127.7109375,-44.43359375,-155.76171875,-37.59765625,-11.71875
127.71484375,-7.32421875,-142.578125,-35.64453125,-31.25
127.71875,8.30078125,-113.76953125,-25.87890625,-14.6484375
127.72265625,-13.18359375,-83.984375,0.9765625,41.50390625
127.7265625,12.20703125,-67.3828125,29.296875,85.44921875
127.73046875,24.90234375,-88.8671875,17.578125,37.59765625
127.734375,17.08984375,-104.98046875,-20.01953125,9.27734375
127.73828125,15.13671875,-98.14453125,-64.453125,43.45703125
127.7421875,-6.34765625,-102.5390625,-54.19921875,23.4375
127.74609375,-64.94140625,-129.8828125,-46.38671875,-38.57421875
127.75,-28.80859375,-123.53515625,-41.50390625,-20.99609375
127.75390625,43.9453125,-83.0078125,-29.78515625,7.8125
127.7578125,3.41796875,-86.9140625,-45.8984375,-6.8359375
127.76171875,-24.4140625,-96.6796875,-40.52734375,-7.8125
127.765625,-17.578125,-81.54296875,-15.13671875,-7.32421875
127.76953125,20.01953125,-33.69140625,5.37109375,32.71484375
127.7734375,12.6953125,-27.83203125,10.25390625,42.48046875
127.77734375,-22.94921875,-73.2421875,-12.20703125,-11.71875
127.78125,-23.92578125,-82.03125,-24.90234375,-30.76171875
127.78515625,-21.484375,-83.0078125,-34.1796875,-27.34375
127.7890625,-17.578125,-76.66015625,-35.64453125,-7.32421875
127.79296875,-3.90625,-43.9453125,-21.97265625,16.11328125
127.796875,23.92578125,-39.0625,-9.27734375,12.20703125
127.80078125,23.92578125,-55.17578125,-0.9765625,8.30078125
127.8046875,10.7421875,-69.3359375,-21.484375,-30.2734375
127.80859375,28.80859375,-66.40625,-14.16015625,-8.30078125
127.8125,33.203125,-52.734375,32.71484375,46.875
127.81640625,2.9296875,-51.26953125,12.20703125,23.92578125
127.8203125,-42.96875,-54.6875,-50.29296875,-45.8984375
127.82421875,-27.34375,-26.85546875,-48.828125,-29.296875
127.828125,11.71875,-16.6015625,-19.53125,2.44140625
127.83203125,-4.8828125,-44.921875,-19.53125,-27.83203125
127.8359375,-3.41796875,-39.55078125,7.8125,20.01953125
127.83984375,-17.08984375,-33.203125,10.7421875,17.578125
127.84375,-72.265625,-64.453125,-37.59765625,-72.75390625
127.84765625,-55.6640625,-63.4765625,-43.9453125,-79.1015625
127.8515625,-7.8125,-31.25,-7.32421875,-23.92578125
127.85546875,-44.43359375,-34.66796875,-13.18359375,-27.83203125
127.859375,-24.4140625,-58.59375,-44.43359375,-50.78125
127.86328125,-14.6484375,-63.4765625,-35.64453125,-50.29296875
127.8671875,-69.3359375,-54.19921875,1.953125,-42.48046875
127.87109375,-48.828125,-43.9453125,5.37109375,-32.71484375
127.875,-21.97265625,-41.50390625,-2.44140625,-2.9296875
127.87890625,-27.34375,-22.4609375,2.44140625,-6.8359375
127.8828125,-18.5546875,-7.32421875,7.8125,-24.4140625
127.88671875,-11.71875,-19.53125,-4.8828125,-51.26953125
127.890625,13.671875,-24.4140625,-12.6953125,-58.10546875
127.89453125,16.6015625,-24.90234375,-6.34765625,-23.92578125
127.8984375,45.8984375,-2.9296875,12.20703125,12.20703125
127.90234375,46.38671875,20.01953125,58.10546875,56.15234375
127.90625,-21.484375,-30.76171875,16.11328125,2.9296875
127.91015625,-66.89453125,-81.0546875,-44.921875,-46.875
127.9140625,-41.9921875,-40.0390625,9.765625,-15.625
127.91796875,-13.18359375,-6.34765625,27.34375,-10.7421875
127.921875,-35.15625,-29.296875,-12.6953125,-18.5546875
127.92578125,12.6953125,-20.99609375,29.78515625,-8.7890625
127.9296875,42.96875,-40.0390625,48.33984375,-35.15625
127.93359375,-40.0390625,-67.87109375,-1.953125,-39.55078125
127.9375,-63.4765625,-63.4765625,-19.04296875,-41.015625
127.94140625,-32.2265625,-62.5,-5.37109375,-51.7578125
127.9453125,-11.71875,-37.109375,11.71875,-45.8984375
127.94921875,31.73828125,0.0,53.22265625,-20.99609375
127.953125,46.875,0.48828125,103.515625,-1.46484375
127.95703125,40.52734375,-10.7421875,114.74609375,10.7421875
127.9609375,0.48828125,-42.96875,72.75390625,-26.3671875
127.96484375,-31.73828125,-48.828125,93.75,-52.24609375
127.96875,8.7890625,4.39453125,187.98828125,8.7890625
127.97265625,57.12890625,34.66796875,254.8828125,39.55078125
127.9765625,111.81640625,35.64453125,288.0859375,23.4375
127.98046875,83.984375,3.41796875,300.29296875,4.8828125
127.984375,1.46484375,-27.83203125,313.4765625,-3.90625
127.98828125,-17.578125,-38.57421875,331.54296875,-36.1328125
127.9921875,-46.38671875,-54.6875,354.4921875,-94.7265625
127.99609375,-44.43359375,-56.15234375,426.26953125,-84.47265625
128.0,-41.50390625,-40.52734375,391.6015625,-82.03125
