Timestamp,TP9,AF7,AF8,TP10
154.01171875,-46.875,-33.203125,-22.94921875,-34.1796875
154.015625,-19.04296875,-27.83203125,-20.01953125,-17.08984375
154.01953125,-18.06640625,-19.53125,-24.90234375,-26.85546875
154.0234375,-38.0859375,-22.94921875,-30.76171875,-40.52734375
154.02734375,-29.78515625,-20.5078125,-16.11328125,-30.76171875
154.03125,-24.4140625,-18.06640625,-7.8125,-25.87890625
154.03515625,-28.3203125,-27.83203125,-23.92578125,-21.484375
154.0390625,-27.34375,-35.15625,-30.76171875,-21.97265625
154.04296875,-48.828125,-39.55078125,-29.296875,-27.34375
154.046875,-58.59375,-39.55078125,-31.25,-27.34375
154.05078125,-38.57421875,-30.76171875,-35.64453125,-23.92578125
154.0546875,-34.66796875,-31.73828125,-32.71484375,-28.80859375
154.05859375,-62.5,-36.62109375,-36.1328125,-43.45703125
154.0625,-62.98828125,-48.828125,-51.26953125,-36.62109375
154.06640625,-48.828125,-59.08203125,-61.03515625,-41.50390625
154.0703125,-48.828125,-56.640625,-68.84765625,-55.6640625
154.07421875,-56.15234375,-51.26953125,-57.6171875,-42.96875
154.078125,-56.15234375,-49.31640625,-36.62109375,-37.109375
154.08203125,-36.1328125,-37.59765625,-34.1796875,-46.875
154.0859375,-17.08984375,-26.85546875,-30.2734375,-33.203125
154.08984375,-19.53125,-23.4375,-26.3671875,-29.78515625
154.09375,-27.34375,-25.87890625,-27.34375,-28.80859375
154.09765625,-20.5078125,-25.390625,-23.4375,-14.16015625
154.1015625,-17.08984375,-20.01953125,-23.4375,-15.13671875
154.10546875,-28.80859375,-27.34375,-36.62109375,-29.296875
154.109375,-49.8046875,-43.9453125,-50.78125,-55.6640625
154.11328125,-33.203125,-36.1328125,-37.109375,-41.50390625
154.1171875,-25.87890625,-30.2734375,-32.2265625,-22.4609375
154.12109375,-23.92578125,-32.71484375,-26.85546875,-23.92578125
154.125,-31.25,-20.5078125,-8.30078125,-23.4375
154.12890625,-40.0390625,-17.08984375,-8.30078125,-18.06640625
154.1328125,-11.23046875,-20.99609375,-13.671875,0.48828125
154.13671875,0.48828125,-14.6484375,-16.6015625,5.859375
154.140625,-27.83203125,-16.6015625,-22.4609375,-9.27734375
154.14453125,-49.31640625,-16.6015625,-24.4140625,-20.01953125
154.1484375,-27.83203125,-15.625,-25.87890625,-12.20703125
154.15234375,-18.5546875,-27.83203125,-32.2265625,-4.39453125
154.15625,-31.73828125,-28.80859375,-35.15625,-21.97265625
154.16015625,-23.4375,-23.4375,-26.85546875,-29.78515625
154.1640625,-25.390625,-26.85546875,-29.296875,-36.1328125
154.16796875,-27.83203125,-37.109375,-34.66796875,-37.109375
154.171875,-25.390625,-41.50390625,-38.0859375,-32.2265625
154.17578125,-32.71484375,-36.62109375,-43.45703125,-30.76171875
154.1796875,-41.50390625,-38.0859375,-42.48046875,-29.296875
154.18359375,-33.69140625,-37.109375,-36.1328125,-20.5078125
154.1875,-26.3671875,-40.52734375,-40.52734375,-14.6484375
154.19140625,-45.8984375,-41.015625,-48.33984375,-24.4140625
154.1953125,-55.17578125,-35.15625,-41.50390625,-24.4140625
154.19921875,-35.15625,-47.36328125,-40.52734375,-17.08984375
154.203125,-25.390625,-53.7109375,-46.38671875,-29.296875
154.20703125,-51.7578125,-49.8046875,-49.8046875,-52.734375
154.2109375,-42.48046875,-47.36328125,-49.8046875,-54.19921875
154.21484375,-11.23046875,-46.38671875,-47.36328125,-38.0859375
154.21875,-9.765625,-37.59765625,-46.875,-28.80859375
154.22265625,-18.06640625,-31.25,-46.38671875,-22.4609375
154.2265625,-34.66796875,-36.62109375,-37.109375,-20.5078125
154.23046875,-36.62109375,-24.4140625,-25.390625,-19.04296875
154.234375,-21.97265625,-18.5546875,-28.80859375,-19.53125
154.23828125,-29.296875,-35.64453125,-38.57421875,-27.34375
154.2421875,-33.203125,-42.96875,-34.66796875,-29.296875
154.24609375,-36.62109375,-38.57421875,-30.2734375,-32.71484375
154.25,-32.2265625,-35.64453125,-33.203125,-30.76171875
154.25390625,-14.6484375,-30.76171875,-33.69140625,-38.57421875
154.2578125,-23.92578125,-27.34375,-28.3203125,-48.33984375
154.26171875,-41.9921875,-29.296875,-25.87890625,-43.45703125
154.265625,-28.3203125,-35.64453125,-39.0625,-34.66796875
154.26953125,-22.94921875,-32.71484375,-51.26953125,-30.2734375
154.2734375,-35.64453125,-36.1328125,-56.15234375,-24.90234375
154.27734375,-40.0390625,-38.0859375,-43.45703125,-23.92578125
154.28125,-35.15625,-33.69140625,-34.1796875,-33.69140625
154.28515625,-36.62109375,-45.8984375,-48.33984375,-46.875
154.2890625,-44.43359375,-53.22265625,-50.78125,-48.33984375
154.29296875,-40.52734375,-42.96875,-38.57421875,-41.015625
154.296875,-35.64453125,-33.69140625,-38.57421875,-38.0859375
154.30078125,-29.296875,-33.69140625,-39.55078125,-38.0859375
154.3046875,-25.87890625,-34.1796875,-37.109375,-41.015625
154.30859375,-34.66796875,-25.87890625,-33.203125,-31.25
154.3125,-43.9453125,-26.85546875,-41.9921875,-24.4140625
154.31640625,-56.15234375,-40.0390625,-51.7578125,-32.71484375
154.3203125,-48.828125,-44.921875,-41.50390625,-41.50390625
154.32421875,-23.4375,-36.1328125,-36.62109375,-32.71484375
154.328125,-35.64453125,-40.0390625,-41.015625,-37.59765625
154.33203125,-47.8515625,-49.8046875,-41.015625,-53.7109375
154.3359375,-14.16015625,-35.64453125,-29.296875,-41.50390625
154.33984375,-8.30078125,-32.2265625,-27.34375,-27.34375
154.34375,-25.87890625,-33.69140625,-24.90234375,-23.4375
154.34765625,-14.16015625,-14.6484375,-18.06640625,-17.08984375
154.3515625,-3.41796875,-15.625,-25.87890625,-29.296875
154.35546875,-25.390625,-30.76171875,-28.3203125,-43.9453125
154.359375,-46.38671875,-25.87890625,-30.76171875,-45.8984375
154.36328125,-29.296875,-20.5078125,-20.99609375,-20.01953125
154.3671875,-15.625,-29.78515625,-10.25390625,-12.20703125
154.37109375,-9.27734375,-30.2734375,-16.11328125,-27.34375
154.375,-13.18359375,-23.4375,-17.578125,-35.64453125
154.37890625,-18.5546875,-17.578125,-13.671875,-21.97265625
154.3828125,1.46484375,-16.11328125,-8.7890625,-1.46484375
154.38671875,20.5078125,-7.8125,8.7890625,7.8125
154.390625,-9.765625,-10.7421875,3.41796875,-9.765625
154.39453125,-33.203125,-15.13671875,-13.18359375,-23.92578125
154.3984375,-32.2265625,-18.5546875,-22.94921875,-27.83203125
154.40234375,-30.2734375,-28.3203125,-32.71484375,-34.1796875
154.40625,-27.34375,-33.69140625,-30.2734375,-31.25
154.41015625,-49.8046875,-38.57421875,-32.2265625,-41.50390625
154.4140625,-45.8984375,-42.96875,-37.59765625,-36.1328125
154.41796875,-17.578125,-39.55078125,-34.66796875,-20.01953125
154.421875,-18.5546875,-39.0625,-28.3203125,-10.7421875
154.42578125,-21.484375,-33.203125,-23.4375,-21.97265625
154.4296875,-25.390625,-42.96875,-30.76171875,-32.2265625
154.43359375,-28.80859375,-46.875,-42.48046875,-26.85546875
154.4375,-29.78515625,-37.59765625,-34.1796875,-25.390625
154.44140625,-52.24609375,-36.62109375,-34.1796875,-53.22265625
154.4453125,-66.89453125,-34.1796875,-42.48046875,-68.84765625
154.44921875,-49.31640625,-29.78515625,-32.71484375,-43.45703125
154.453125,-32.71484375,-26.85546875,-22.94921875,-28.80859375
154.45703125,-30.2734375,-27.34375,-27.83203125,-39.0625
154.4609375,-41.50390625,-26.85546875,-35.15625,-45.8984375
154.46484375,-53.22265625,-32.71484375,-46.38671875,-57.12890625
154.46875,-32.2265625,-33.69140625,-40.0390625,-45.8984375
154.47265625,-26.85546875,-24.90234375,-31.73828125,-34.66796875
154.4765625,-46.875,-25.87890625,-33.69140625,-42.48046875
154.48046875,-49.8046875,-34.1796875,-41.9921875,-56.15234375
154.484375,-58.10546875,-47.8515625,-39.55078125,-74.21875
154.48828125,-99.609375,-60.546875,-42.48046875,-103.515625
154.4921875,-129.39453125,-67.87109375,-52.24609375,-124.51171875
154.49609375,-129.39453125,-76.66015625,-68.359375,-122.0703125
154.5,-145.99609375,-103.02734375,-112.79296875,-160.64453125
154.50390625,-167.96875,-109.375,-126.953125,-200.1953125
154.5078125,-182.6171875,-96.19140625,-121.09375,-197.75390625
154.51171875,-192.3828125,-92.7734375,-113.76953125,-200.1953125
154.515625,-252.9296875,-144.04296875,-164.0625,-259.765625
154.51953125,-339.84375,-219.7265625,-249.0234375,-341.796875
154.5234375,-466.30859375,-319.3359375,-345.21484375,-449.21875
154.52734375,-564.453125,-369.62890625,-399.90234375,-532.2265625
154.53125,-529.78515625,-325.68359375,-350.5859375,-515.625
154.53515625,-477.5390625,-279.78515625,-284.1796875,-462.890625
154.5390625,-469.23828125,-259.27734375,-262.20703125,-447.75390625
154.54296875,-471.6796875,-246.09375,-252.9296875,-455.078125
154.546875,-462.40234375,-234.86328125,-230.46875,-441.40625
154.55078125,-422.36328125,-208.0078125,-212.40234375,-419.921875
154.5546875,-390.13671875,-193.359375,-194.3359375,-397.4609375
154.55859375,-385.25390625,-180.6640625,-163.57421875,-389.6484375
154.5625,-358.3984375,-141.6015625,-129.39453125,-357.91015625
154.56640625,-326.66015625,-127.44140625,-123.53515625,-336.9140625
154.5703125,-309.5703125,-135.25390625,-127.44140625,-339.35546875
154.57421875,-314.453125,-130.37109375,-138.18359375,-328.125
154.578125,-309.08203125,-132.32421875,-147.4609375,-307.12890625
154.58203125,-284.66796875,-129.39453125,-140.13671875,-291.015625
154.5859375,-252.44140625,-117.1875,-135.7421875,-262.20703125
154.58984375,-238.28125,-111.328125,-135.7421875,-248.046875
154.59375,-227.5390625,-109.375,-129.8828125,-241.2109375
154.59765625,-209.47265625,-109.375,-140.13671875,-219.7265625
154.6015625,-198.2421875,-112.79296875,-159.66796875,-217.28515625
154.60546875,-185.05859375,-105.95703125,-145.5078125,-211.42578125
154.609375,-188.4765625,-98.14453125,-125.48828125,-185.05859375
154.61328125,-173.33984375,-95.703125,-127.9296875,-170.8984375
154.6171875,-144.04296875,-93.75,-131.8359375,-157.2265625
154.62109375,-125.0,-88.8671875,-123.53515625,-129.8828125
154.625,-116.2109375,-81.0546875,-116.2109375,-117.1875
154.62890625,-128.41796875,-90.33203125,-135.25390625,-134.765625
154.6328125,-106.93359375,-106.4453125,-149.4140625,-115.234375
154.63671875,-115.72265625,-125.0,-160.15625,-121.09375
154.640625,-133.7890625,-129.39453125,-159.1796875,-135.7421875
154.64453125,-119.140625,-125.0,-150.87890625,-110.83984375
154.6484375,-123.53515625,-136.71875,-158.69140625,-102.05078125
154.65234375,-116.2109375,-149.90234375,-175.29296875,-103.515625
154.65625,-111.81640625,-156.73828125,-191.89453125,-109.375
154.66015625,-127.9296875,-163.57421875,-198.2421875,-116.2109375
154.6640625,-138.671875,-173.33984375,-202.1484375,-120.60546875
154.66796875,-144.53125,-184.08203125,-216.796875,-136.23046875
154.671875,-143.5546875,-182.6171875,-226.5625,-139.6484375
154.67578125,-126.46484375,-171.38671875,-219.7265625,-126.953125
154.6796875,-106.93359375,-162.59765625,-201.171875,-106.93359375
154.68359375,-90.8203125,-154.78515625,-191.40625,-97.65625
154.6875,-81.0546875,-146.97265625,-188.96484375,-93.26171875
154.69140625,-72.75390625,-143.5546875,-169.921875,-66.89453125
154.6953125,-65.4296875,-132.32421875,-147.4609375,-48.33984375
154.69921875,-59.08203125,-131.34765625,-152.34375,-46.875
154.703125,-53.22265625,-140.13671875,-172.36328125,-49.8046875
154.70703125,-53.22265625,-141.11328125,-167.48046875,-52.24609375
154.7109375,-56.640625,-135.25390625,-149.4140625,-45.41015625
154.71484375,-37.109375,-116.2109375,-133.7890625,-37.59765625
154.71875,-11.23046875,-110.83984375,-115.234375,-29.296875
154.72265625,-6.34765625,-102.5390625,-102.5390625,-18.5546875
154.7265625,-3.90625,-83.49609375,-92.7734375,-3.41796875
154.73046875,0.0,-71.77734375,-82.03125,5.859375
154.734375,5.859375,-64.453125,-68.359375,-0.9765625
154.73828125,-0.9765625,-67.3828125,-52.24609375,-9.27734375
154.7421875,-3.41796875,-74.70703125,-47.36328125,-2.9296875
154.74609375,2.9296875,-75.68359375,-53.7109375,1.953125
154.75,8.30078125,-74.21875,-59.08203125,1.46484375
154.75390625,12.6953125,-71.2890625,-61.03515625,0.0
154.7578125,7.8125,-72.265625,-57.12890625,0.0
154.76171875,10.25390625,-62.5,-46.875,6.8359375
154.765625,29.78515625,-55.17578125,-38.0859375,23.92578125
154.76953125,39.55078125,-50.29296875,-37.109375,38.0859375
154.7734375,29.296875,-39.0625,-39.0625,37.59765625
154.77734375,21.484375,-24.90234375,-33.69140625,38.57421875
154.78125,34.66796875,-18.5546875,-28.80859375,52.734375
154.78515625,48.828125,-26.3671875,-26.3671875,48.33984375
154.7890625,45.41015625,-28.80859375,-24.90234375,32.2265625
154.79296875,21.97265625,-32.2265625,-23.92578125,39.55078125
154.796875,11.71875,-32.2265625,-18.06640625,44.43359375
154.80078125,26.85546875,-29.78515625,-23.92578125,42.48046875
154.8046875,31.73828125,-31.73828125,-28.3203125,49.8046875
154.80859375,20.01953125,-23.92578125,-18.5546875,53.22265625
154.8125,13.18359375,-17.08984375,-8.30078125,40.0390625
154.81640625,20.5078125,-21.484375,-3.41796875,32.2265625
154.8203125,27.34375,-29.296875,-4.39453125,20.01953125
154.82421875,14.16015625,-31.25,-13.671875,7.32421875
154.828125,2.9296875,-29.296875,-19.04296875,6.8359375
154.83203125,12.20703125,-24.4140625,-17.578125,20.5078125
154.8359375,12.6953125,-23.92578125,-17.08984375,21.484375
154.83984375,11.71875,-22.94921875,-10.25390625,22.94921875
154.84375,1.953125,-24.90234375,-10.25390625,18.06640625
154.84765625,-2.9296875,-20.01953125,-13.18359375,8.30078125
154.8515625,21.97265625,-15.13671875,-7.8125,25.390625
154.85546875,31.25,-12.6953125,-7.8125,27.83203125
154.859375,7.32421875,-23.4375,-15.13671875,8.30078125
154.86328125,-7.32421875,-35.64453125,-17.08984375,-2.9296875
154.8671875,-5.37109375,-41.50390625,-24.90234375,0.0
154.87109375,3.90625,-30.2734375,-12.20703125,8.7890625
154.875,-0.48828125,-18.06640625,6.8359375,9.27734375
154.87890625,-14.16015625,-21.97265625,-10.25390625,2.9296875
154.8828125,0.0,-23.4375,-21.484375,2.9296875
154.88671875,21.484375,-20.5078125,-15.625,19.53125
154.890625,4.39453125,-21.97265625,-14.6484375,17.578125
154.89453125,-19.04296875,-27.34375,-18.5546875,3.41796875
154.8984375,-13.671875,-31.25,-28.80859375,7.32421875
154.90234375,-1.953125,-26.85546875,-28.3203125,0.48828125
154.90625,-1.953125,-22.4609375,-22.94921875,-6.34765625
154.91015625,-2.44140625,-18.06640625,-20.5078125,-7.8125
154.9140625,5.859375,-15.625,-2.9296875,-1.46484375
154.91796875,16.11328125,-13.671875,3.90625,15.625
154.921875,7.8125,-12.6953125,-0.48828125,12.6953125
154.92578125,7.32421875,-14.16015625,6.8359375,11.71875
154.9296875,11.23046875,-14.6484375,0.48828125,16.11328125
154.93359375,16.11328125,-4.8828125,-13.671875,6.34765625
154.9375,15.13671875,-3.90625,-10.7421875,-8.30078125
154.94140625,4.8828125,-7.8125,-8.7890625,-2.44140625
154.9453125,4.39453125,-9.27734375,-11.23046875,1.953125
154.94921875,11.23046875,-10.7421875,-8.30078125,1.953125
154.953125,20.99609375,-5.859375,-3.90625,15.13671875
154.95703125,9.27734375,-4.39453125,-6.8359375,6.34765625
154.9609375,-17.578125,-15.625,-18.5546875,-15.13671875
154.96484375,-7.8125,-22.94921875,-28.80859375,-6.34765625
154.96875,15.13671875,-15.13671875,-22.94921875,3.41796875
154.97265625,7.32421875,-13.18359375,-3.90625,-6.8359375
154.9765625,0.48828125,-17.578125,-1.953125,-12.20703125
154.98046875,3.90625,-21.97265625,-16.6015625,-12.6953125
154.984375,-0.48828125,-21.97265625,-19.53125,-17.578125
154.98828125,-4.39453125,-18.5546875,-15.625,-20.01953125
154.9921875,-20.5078125,-15.625,-18.06640625,-16.11328125
154.99609375,-31.25,-18.5546875,-15.625,-15.13671875
155.0,1.953125,-23.92578125,-12.20703125,-10.7421875
155.00390625,5.859375,-24.4140625,-14.16015625,-10.25390625
155.0078125,-17.08984375,-21.97265625,-17.578125,-18.5546875
155.01171875,-25.87890625,-25.87890625,-27.34375,-31.25
155.015625,-20.01953125,-36.1328125,-29.78515625,-22.4609375
155.01953125,-11.23046875,-43.9453125,-30.76171875,-16.11328125
155.0234375,-8.7890625,-35.15625,-29.296875,-26.3671875
155.02734375,-10.7421875,-18.06640625,-18.06640625,-17.578125
155.03125,-6.8359375,-19.04296875,-14.16015625,-8.30078125
155.03515625,11.71875,-13.18359375,-10.7421875,-2.44140625
155.0390625,12.20703125,-8.7890625,-12.20703125,4.8828125
155.04296875,-2.44140625,-9.765625,-11.71875,9.27734375
155.046875,6.8359375,-7.32421875,-1.46484375,13.18359375
155.05078125,11.71875,-13.18359375,-9.27734375,0.9765625
155.0546875,5.37109375,-11.23046875,-24.90234375,-22.4609375
155.05859375,-12.6953125,-12.6953125,-16.6015625,-23.4375
155.0625,-26.85546875,-23.4375,-7.8125,-10.7421875
155.06640625,-11.23046875,-21.97265625,-20.01953125,-4.39453125
155.0703125,2.9296875,-20.01953125,-32.2265625,-11.23046875
155.07421875,-12.20703125,-29.296875,-33.203125,-21.97265625
155.078125,-29.296875,-33.69140625,-41.9921875,-30.2734375
155.08203125,-28.3203125,-28.3203125,-48.33984375,-30.2734375
155.0859375,-14.6484375,-31.25,-42.48046875,-29.78515625
155.08984375,-30.76171875,-40.52734375,-40.0390625,-43.45703125
155.09375,-55.6640625,-37.109375,-41.015625,-52.24609375
155.09765625,-48.828125,-33.203125,-31.25,-37.109375
155.1015625,-30.76171875,-34.1796875,-25.390625,-36.1328125
155.10546875,-27.34375,-31.73828125,-25.87890625,-36.62109375
155.109375,-35.64453125,-30.76171875,-26.3671875,-38.0859375
155.11328125,-29.78515625,-27.34375,-30.2734375,-32.71484375
155.1171875,-20.5078125,-31.73828125,-40.52734375,-30.2734375
155.12109375,-18.5546875,-32.71484375,-32.71484375,-30.2734375
155.125,-25.87890625,-27.34375,-20.99609375,-28.80859375
155.12890625,-45.41015625,-24.4140625,-22.4609375,-34.1796875
155.1328125,-43.9453125,-29.78515625,-32.71484375,-33.203125
155.13671875,-32.2265625,-35.64453125,-44.921875,-35.64453125
155.140625,-22.4609375,-31.25,-35.64453125,-29.296875
155.14453125,-27.83203125,-28.80859375,-32.2265625,-34.1796875
155.1484375,-31.73828125,-27.34375,-28.80859375,-35.64453125
155.15234375,-23.92578125,-33.69140625,-24.90234375,-32.2265625
155.15625,-33.203125,-41.50390625,-38.0859375,-40.0390625
155.16015625,-49.8046875,-38.0859375,-43.45703125,-53.22265625
155.1640625,-42.48046875,-42.48046875,-38.57421875,-50.29296875
155.16796875,-22.94921875,-43.45703125,-41.015625,-32.71484375
155.171875,-17.08984375,-33.203125,-45.8984375,-26.85546875
155.17578125,-28.3203125,-36.1328125,-49.8046875,-30.2734375
155.1796875,-37.109375,-34.66796875,-47.36328125,-25.87890625
155.18359375,-29.78515625,-30.2734375,-46.38671875,-33.203125
155.1875,-32.71484375,-40.0390625,-41.015625,-51.26953125
155.19140625,-44.43359375,-36.1328125,-32.71484375,-54.19921875
155.1953125,-47.8515625,-36.1328125,-38.57421875,-48.828125
155.19921875,-36.62109375,-42.96875,-46.38671875,-37.59765625
155.203125,-22.4609375,-42.96875,-46.875,-34.66796875
155.20703125,-37.109375,-45.41015625,-40.52734375,-48.33984375
155.2109375,-53.7109375,-45.8984375,-38.57421875,-45.41015625
155.21484375,-41.015625,-48.33984375,-41.015625,-37.109375
155.21875,-19.53125,-41.015625,-37.109375,-28.3203125
155.22265625,-15.625,-26.85546875,-30.76171875,-34.1796875
155.2265625,-34.66796875,-29.78515625,-29.296875,-33.203125
155.23046875,-47.36328125,-30.2734375,-34.66796875,-42.96875
155.234375,-36.1328125,-25.390625,-22.4609375,-24.90234375
155.23828125,-24.4140625,-18.5546875,-7.8125,-12.20703125
155.2421875,-33.203125,-21.484375,-13.671875,-13.671875
155.24609375,-36.62109375,-26.85546875,-9.27734375,-3.41796875
155.25,-16.11328125,-21.97265625,-13.671875,-6.8359375
155.25390625,-16.11328125,-24.90234375,-21.484375,-28.3203125
155.2578125,-29.296875,-23.92578125,-15.625,-33.203125
155.26171875,-43.45703125,-34.66796875,-8.7890625,-33.69140625
155.265625,-42.96875,-43.9453125,-20.5078125,-40.0390625
155.26953125,-37.109375,-38.0859375,-30.2734375,-32.71484375
155.2734375,-48.33984375,-48.33984375,-35.64453125,-42.96875
155.27734375,-54.6875,-56.15234375,-42.48046875,-49.8046875
155.28125,-48.828125,-56.15234375,-54.6875,-39.55078125
155.28515625,-34.66796875,-62.01171875,-60.546875,-48.828125
155.2890625,-45.8984375,-63.96484375,-56.15234375,-68.359375
155.29296875,-59.08203125,-64.94140625,-53.7109375,-63.96484375
155.296875,-73.2421875,-79.1015625,-68.359375,-77.1484375
155.30078125,-83.0078125,-88.37890625,-86.42578125,-85.44921875
155.3046875,-70.3125,-79.1015625,-74.70703125,-68.84765625
155.30859375,-80.56640625,-75.68359375,-69.3359375,-79.1015625
155.3125,-94.23828125,-82.03125,-77.63671875,-93.26171875
155.31640625,-66.89453125,-70.3125,-58.59375,-62.01171875
155.3203125,-36.62109375,-56.640625,-43.9453125,-42.96875
155.32421875,-42.96875,-49.8046875,-36.1328125,-42.96875
155.328125,-36.62109375,-40.0390625,-16.6015625,-25.87890625
155.33203125,-17.08984375,-41.015625,-17.08984375,-26.85546875
155.3359375,-17.08984375,-44.43359375,-18.06640625,-31.25
155.33984375,-32.71484375,-48.828125,-15.625,-28.3203125
155.34375,-50.29296875,-55.17578125,-19.53125,-41.50390625
155.34765625,-41.015625,-55.17578125,-24.90234375,-38.57421875
155.3515625,-32.71484375,-61.03515625,-30.76171875,-36.1328125
155.35546875,-44.921875,-62.98828125,-30.76171875,-44.43359375
155.359375,-67.87109375,-53.22265625,-33.69140625,-38.57421875
155.36328125,-80.56640625,-41.015625,-36.62109375,-31.73828125
155.3671875,-43.45703125,-40.52734375,-30.76171875,-22.94921875
155.37109375,-26.85546875,-45.8984375,-26.85546875,-24.4140625
155.375,-40.0390625,-39.0625,-25.390625,-26.85546875
155.37890625,-34.1796875,-23.92578125,-10.25390625,-20.99609375
155.3828125,-23.92578125,-24.90234375,4.39453125,-14.6484375
155.38671875,-29.296875,-32.71484375,-0.48828125,-18.06640625
155.390625,-24.4140625,-26.85546875,4.39453125,-20.99609375
155.39453125,-33.69140625,-18.5546875,10.25390625,-13.671875
155.3984375,-43.9453125,-26.3671875,-11.71875,-21.97265625
155.40234375,-25.87890625,-27.83203125,-26.85546875,-20.99609375
155.40625,-26.85546875,-24.4140625,-12.20703125,-14.6484375
155.41015625,-40.52734375,-21.97265625,-6.34765625,-33.203125
155.4140625,-26.3671875,-27.83203125,-9.765625,-32.2265625
155.41796875,-4.39453125,-24.4140625,-3.41796875,-8.7890625
155.421875,-15.625,-16.6015625,-3.90625,-10.7421875
155.42578125,-34.66796875,-21.97265625,-10.25390625,-17.08984375
155.4296875,-35.15625,-28.3203125,-18.5546875,-20.99609375
155.43359375,-13.18359375,-33.203125,-15.625,-21.97265625
155.4375,-3.90625,-28.3203125,-14.16015625,-18.06640625
155.44140625,-29.78515625,-31.25,-25.390625,-28.80859375
155.4453125,-39.0625,-36.62109375,-23.92578125,-25.87890625
155.44921875,-35.64453125,-35.64453125,-32.2265625,-23.4375
155.453125,-22.4609375,-38.57421875,-34.1796875,-26.85546875
155.45703125,-17.578125,-36.62109375,-26.3671875,-27.83203125
155.4609375,-34.66796875,-34.1796875,-22.4609375,-29.296875
155.46484375,-20.01953125,-28.3203125,-12.20703125,-8.7890625
155.46875,-4.39453125,-19.53125,-3.41796875,-0.48828125
155.47265625,-9.765625,-8.30078125,1.46484375,-11.71875
155.4765625,-16.6015625,-6.34765625,3.90625,-15.13671875
155.48046875,-12.20703125,-12.6953125,3.41796875,-5.37109375
155.484375,5.37109375,-3.90625,6.8359375,7.8125
155.48828125,1.46484375,-0.48828125,6.34765625,4.8828125
155.4921875,-4.39453125,-10.25390625,-1.46484375,-11.23046875
155.49609375,-8.7890625,-11.23046875,0.0,-10.25390625
155.5,-1.46484375,-11.23046875,-4.39453125,3.41796875
155.50390625,12.6953125,-3.41796875,-4.39453125,0.9765625
155.5078125,-8.30078125,-8.30078125,-13.671875,-14.6484375
155.51171875,-21.484375,-18.06640625,-19.53125,-14.16015625
155.515625,-9.27734375,-20.5078125,-15.625,-4.8828125
155.51953125,-15.625,-20.01953125,-22.4609375,-11.71875
155.5234375,-20.5078125,-14.6484375,-21.97265625,-13.671875
155.52734375,-33.69140625,-23.92578125,-29.296875,-30.2734375
155.53125,-43.9453125,-39.55078125,-39.0625,-28.3203125
155.53515625,-10.25390625,-46.875,-42.48046875,-3.41796875
155.5390625,-10.25390625,-43.45703125,-38.0859375,-23.4375
155.54296875,-52.734375,-46.875,-41.50390625,-52.734375
155.546875,-65.91796875,-53.22265625,-59.08203125,-57.12890625
155.55078125,-35.64453125,-49.8046875,-64.94140625,-48.33984375
155.5546875,-21.484375,-47.36328125,-54.19921875,-49.31640625
155.55859375,-54.6875,-47.8515625,-47.8515625,-60.05859375
155.5625,-66.40625,-48.33984375,-46.875,-60.05859375
155.56640625,-44.43359375,-49.31640625,-41.015625,-48.828125
155.5703125,-39.55078125,-45.8984375,-41.50390625,-56.15234375
155.57421875,-58.59375,-49.31640625,-38.0859375,-61.5234375
155.578125,-59.5703125,-48.33984375,-36.62109375,-48.33984375
155.58203125,-46.875,-41.50390625,-49.8046875,-48.33984375
155.5859375,-31.73828125,-41.50390625,-45.8984375,-46.875
155.58984375,-31.25,-36.1328125,-34.1796875,-49.8046875
155.59375,-40.0390625,-36.1328125,-35.64453125,-45.8984375
155.59765625,-34.66796875,-32.71484375,-33.69140625,-34.1796875
155.6015625,-36.62109375,-41.50390625,-44.921875,-50.78125
155.60546875,-48.828125,-54.6875,-45.41015625,-63.4765625
155.609375,-49.8046875,-47.36328125,-30.2734375,-45.8984375
155.61328125,-39.0625,-40.52734375,-25.87890625,-31.25
155.6171875,-16.11328125,-36.1328125,-24.4140625,-22.4609375
155.62109375,-17.08984375,-34.66796875,-27.34375,-35.64453125
155.625,-32.2265625,-34.66796875,-26.85546875,-42.48046875
155.62890625,-35.64453125,-33.69140625,-21.97265625,-39.0625
155.6328125,-24.4140625,-37.109375,-24.90234375,-40.52734375
155.63671875,-20.01953125,-47.36328125,-34.66796875,-44.43359375
155.640625,-55.6640625,-51.7578125,-41.015625,-59.08203125
155.64453125,-68.84765625,-47.8515625,-42.48046875,-58.10546875
155.6484375,-41.015625,-53.7109375,-49.31640625,-32.71484375
155.65234375,-42.96875,-70.80078125,-59.08203125,-37.109375
155.65625,-63.96484375,-80.56640625,-62.5,-58.10546875
155.66015625,-74.70703125,-81.54296875,-69.82421875,-66.89453125
155.6640625,-78.125,-84.47265625,-76.66015625,-71.2890625
155.66796875,-77.63671875,-84.9609375,-82.03125,-73.2421875
155.671875,-76.66015625,-83.984375,-78.125,-79.58984375
155.67578125,-74.21875,-69.3359375,-66.40625,-66.89453125
155.6796875,-69.82421875,-60.05859375,-55.17578125,-52.24609375
155.68359375,-56.15234375,-59.08203125,-46.875,-51.7578125
155.6875,-49.31640625,-56.640625,-45.8984375,-53.7109375
155.69140625,-59.08203125,-62.01171875,-49.31640625,-62.5
155.6953125,-72.265625,-71.77734375,-52.734375,-70.3125
155.69921875,-64.453125,-68.359375,-61.03515625,-67.87109375
155.703125,-45.41015625,-55.6640625,-61.5234375,-55.17578125
155.70703125,-56.640625,-50.29296875,-52.24609375,-53.7109375
155.7109375,-77.63671875,-61.5234375,-57.12890625,-68.359375
155.71484375,-70.80078125,-64.94140625,-59.5703125,-67.87109375
155.71875,-51.26953125,-60.546875,-48.33984375,-58.59375
155.72265625,-48.828125,-58.10546875,-49.31640625,-61.5234375
155.7265625,-68.359375,-60.546875,-52.734375,-64.94140625
155.73046875,-74.21875,-70.80078125,-50.78125,-65.4296875
155.734375,-53.22265625,-72.75390625,-52.24609375,-54.19921875
155.73828125,-42.48046875,-61.5234375,-52.24609375,-47.36328125
155.7421875,-59.08203125,-66.40625,-41.015625,-43.45703125
155.74609375,-70.3125,-65.4296875,-30.2734375,-34.1796875
155.75,-51.26953125,-51.26953125,-27.34375,-31.73828125
155.75390625,-24.4140625,-37.109375,-19.53125,-33.203125
155.7578125,-24.4140625,-31.25,-9.27734375,-33.69140625
155.76171875,-42.48046875,-25.87890625,-14.6484375,-32.71484375
155.765625,-20.01953125,-10.25390625,-11.23046875,-16.11328125
155.76953125,24.90234375,0.0,3.41796875,5.859375
155.7734375,27.34375,6.8359375,11.23046875,12.6953125
155.77734375,13.18359375,12.6953125,19.04296875,18.06640625
155.78125,13.671875,7.32421875,18.5546875,19.53125
155.78515625,29.296875,5.859375,22.94921875,21.484375
155.7890625,26.3671875,4.8828125,19.53125,13.671875
155.79296875,12.20703125,8.7890625,12.6953125,6.8359375
155.796875,17.08984375,11.71875,17.08984375,13.671875
155.80078125,17.578125,1.46484375,14.6484375,6.8359375
155.8046875,17.08984375,-6.34765625,10.7421875,4.39453125
155.80859375,-11.23046875,-8.7890625,7.8125,2.9296875
155.8125,-27.34375,-6.8359375,4.8828125,-4.39453125
155.81640625,-8.30078125,-3.90625,7.32421875,1.953125
155.8203125,-3.41796875,-13.18359375,10.7421875,8.30078125
155.82421875,-11.23046875,-14.6484375,-1.46484375,-10.7421875
155.828125,-20.5078125,-21.484375,-13.18359375,-18.5546875
155.83203125,-19.53125,-24.90234375,-14.6484375,-19.04296875
155.8359375,-13.18359375,-23.92578125,-20.01953125,-29.78515625
155.83984375,-22.94921875,-31.25,-15.13671875,-33.69140625
155.84375,-23.4375,-29.78515625,-16.6015625,-28.80859375
155.84765625,-31.73828125,-28.80859375,-23.92578125,-34.1796875
155.8515625,-38.0859375,-39.55078125,-28.3203125,-35.15625
155.85546875,-24.4140625,-34.66796875,-32.2265625,-36.62109375
155.859375,-29.78515625,-28.80859375,-25.87890625,-35.15625
155.86328125,-29.296875,-32.71484375,-8.7890625,-27.83203125
155.8671875,-11.71875,-20.99609375,1.46484375,-25.390625
155.87109375,-4.39453125,-15.625,-4.8828125,-20.01953125
155.875,-17.578125,-24.4140625,-14.6484375,-17.578125
155.87890625,-21.97265625,-19.04296875,-15.13671875,-21.484375
155.8828125,-18.5546875,-18.06640625,-11.23046875,-25.390625
155.88671875,-20.5078125,-20.5078125,-13.671875,-29.296875
155.890625,-20.99609375,-17.08984375,-11.71875,-31.73828125
155.89453125,-19.53125,-13.18359375,2.44140625,-22.4609375
155.8984375,-5.37109375,-7.8125,-0.48828125,-9.27734375
155.90234375,6.8359375,-8.7890625,-6.34765625,-1.953125
155.90625,19.53125,-1.46484375,10.7421875,6.34765625
155.91015625,2.9296875,0.48828125,9.27734375,1.953125
155.9140625,-3.90625,-3.90625,4.8828125,10.25390625
155.91796875,13.671875,-7.32421875,10.25390625,9.27734375
155.921875,6.8359375,-7.8125,2.9296875,-1.953125
155.92578125,-10.7421875,-0.9765625,6.34765625,0.0
155.9296875,-4.39453125,1.953125,15.625,3.41796875
155.93359375,18.06640625,-3.90625,13.671875,10.25390625
155.9375,19.04296875,-7.8125,15.625,7.32421875
155.94140625,0.0,-6.34765625,14.6484375,-10.25390625
155.9453125,-12.6953125,-11.23046875,6.8359375,-8.7890625
155.94921875,-8.30078125,-16.11328125,3.41796875,-1.46484375
155.953125,3.90625,-8.7890625,1.46484375,-3.41796875
155.95703125,-2.44140625,-10.7421875,-4.8828125,-2.9296875
155.9609375,-29.296875,-25.390625,-12.20703125,-7.8125
155.96484375,-24.90234375,-23.4375,-15.625,-4.8828125
155.96875,-9.27734375,-17.08984375,-14.6484375,-4.39453125
155.97265625,-18.5546875,-11.71875,-12.20703125,-12.6953125
155.9765625,-20.01953125,-12.6953125,-14.16015625,-17.08984375
155.98046875,-12.20703125,-16.6015625,-21.484375,-20.01953125
155.984375,-2.9296875,-16.11328125,-11.71875,-9.27734375
155.98828125,3.90625,-3.90625,11.71875,10.25390625
155.9921875,-1.46484375,0.0,4.8828125,12.6953125
155.99609375,-5.37109375,-8.30078125,-9.27734375,2.44140625
156.0,-2.9296875,-13.18359375,-11.23046875,-3.90625
156.00390625,-1.46484375,-9.765625,-6.34765625,-4.39453125
156.0078125,-16.6015625,-7.32421875,0.9765625,-7.8125
156.01171875,-28.3203125,-6.34765625,0.0,-18.5546875
156.015625,-10.25390625,-13.18359375,-8.30078125,-23.4375
156.01953125,5.859375,-16.6015625,-12.6953125,-8.30078125
156.0234375,-8.7890625,-14.6484375,-22.94921875,-10.7421875
156.02734375,-19.04296875,-17.08984375,-21.484375,-15.13671875
156.03125,-13.671875,-20.01953125,-13.18359375,-10.25390625
156.03515625,-0.9765625,-17.578125,-19.04296875,-20.01953125
156.0390625,-9.27734375,-16.6015625,-26.85546875,-26.85546875
156.04296875,-27.34375,-18.06640625,-26.85546875,-22.4609375
156.046875,-32.2265625,-26.3671875,-15.13671875,-16.6015625
156.05078125,-21.97265625,-23.4375,-5.859375,-10.25390625
156.0546875,-1.46484375,-16.6015625,-0.48828125,0.48828125
156.05859375,-9.27734375,-12.6953125,5.37109375,2.44140625
156.0625,-17.08984375,-10.7421875,1.46484375,-5.37109375
156.06640625,-10.7421875,-12.20703125,-5.37109375,-8.7890625
156.0703125,-0.48828125,-9.765625,-2.44140625,-17.578125
156.07421875,1.953125,-7.32421875,1.46484375,-22.4609375
156.078125,5.37109375,-10.25390625,0.9765625,-6.8359375
156.08203125,9.27734375,-12.20703125,-2.44140625,-1.46484375
156.0859375,8.7890625,-12.20703125,0.9765625,-8.30078125
156.08984375,13.671875,-13.671875,-0.9765625,-2.9296875
156.09375,7.8125,-11.23046875,-1.953125,-9.27734375
156.09765625,5.37109375,-4.8828125,6.34765625,-11.71875
156.1015625,24.90234375,-2.9296875,12.20703125,-0.9765625
156.10546875,21.97265625,-1.46484375,1.46484375,-2.44140625
156.109375,-4.39453125,-2.9296875,-2.9296875,3.41796875
156.11328125,-15.13671875,-7.32421875,0.48828125,11.23046875
156.1171875,-12.20703125,-11.71875,-2.44140625,-3.90625
156.12109375,-6.8359375,-10.25390625,3.90625,-5.37109375
156.125,-5.859375,-1.46484375,9.765625,3.90625
156.12890625,-24.4140625,-10.25390625,2.44140625,-4.8828125
156.1328125,-27.34375,-24.90234375,-9.765625,-13.18359375
156.13671875,-25.390625,-25.390625,-10.25390625,-22.94921875
156.140625,-43.9453125,-26.3671875,-11.71875,-38.57421875
156.14453125,-44.921875,-30.76171875,-19.53125,-36.62109375
156.1484375,-30.76171875,-28.3203125,-23.92578125,-16.6015625
156.15234375,-22.94921875,-28.3203125,-22.4609375,-11.71875
156.15625,-23.4375,-37.59765625,-19.04296875,-25.87890625
156.16015625,-31.25,-32.2265625,-22.4609375,-28.3203125
156.1640625,-26.85546875,-20.99609375,-13.671875,-12.6953125
156.16796875,-1.953125,-20.99609375,-3.90625,-6.34765625
156.171875,-9.27734375,-26.3671875,-13.671875,-20.99609375
156.17578125,-32.2265625,-21.484375,-8.30078125,-28.80859375
156.1796875,-26.3671875,-15.625,-1.953125,-23.4375
156.18359375,-8.30078125,-16.6015625,0.48828125,-7.8125
156.1875,1.46484375,-21.484375,-0.9765625,-7.32421875
156.19140625,-16.11328125,-19.53125,-8.30078125,-25.390625
156.1953125,-21.484375,-6.8359375,-2.9296875,-20.99609375
156.19921875,-4.8828125,-9.765625,1.953125,-0.48828125
156.203125,3.90625,-13.18359375,0.9765625,0.48828125
156.20703125,1.46484375,-4.8828125,0.9765625,-12.20703125
156.2109375,-20.99609375,-12.20703125,-5.859375,-20.01953125
156.21484375,-39.55078125,-21.97265625,-20.01953125,-22.4609375
156.21875,-25.87890625,-18.06640625,-22.4609375,-28.3203125
156.22265625,-23.4375,-19.04296875,-23.4375,-25.87890625
156.2265625,-28.80859375,-27.34375,-25.390625,-12.20703125
156.23046875,-34.66796875,-36.1328125,-25.390625,-20.5078125
156.234375,-20.5078125,-37.59765625,-17.578125,-22.94921875
156.23828125,-6.34765625,-34.1796875,-12.20703125,-28.80859375
156.2421875,-26.3671875,-38.0859375,-19.04296875,-39.55078125
156.24609375,-41.50390625,-36.62109375,-31.25,-25.87890625
156.25,-33.69140625,-38.0859375,-36.62109375,-29.78515625
156.25390625,-20.99609375,-35.64453125,-35.64453125,-35.64453125
156.2578125,-30.76171875,-31.25,-33.203125,-35.15625
156.26171875,-47.36328125,-32.71484375,-38.0859375,-47.36328125
156.265625,-40.52734375,-39.0625,-35.64453125,-49.31640625
156.26953125,-30.2734375,-41.9921875,-31.25,-48.33984375
156.2734375,-32.71484375,-36.62109375,-30.76171875,-48.33984375
156.27734375,-32.2265625,-32.71484375,-27.83203125,-37.109375
156.28125,-24.90234375,-36.62109375,-27.83203125,-38.0859375
156.28515625,-16.11328125,-31.73828125,-31.25,-40.0390625
156.2890625,-30.76171875,-28.3203125,-29.78515625,-49.31640625
156.29296875,-55.17578125,-30.2734375,-25.87890625,-53.22265625
156.296875,-47.36328125,-33.69140625,-24.90234375,-41.015625
156.30078125,-35.15625,-40.0390625,-21.97265625,-39.0625
156.3046875,-27.83203125,-34.66796875,-20.99609375,-41.015625
156.30859375,-33.203125,-32.2265625,-30.2734375,-29.296875
156.3125,-41.015625,-33.203125,-33.203125,-26.85546875
156.31640625,-35.64453125,-36.1328125,-34.1796875,-36.1328125
156.3203125,-30.2734375,-47.36328125,-28.3203125,-43.45703125
156.32421875,-45.41015625,-48.828125,-30.2734375,-52.24609375
156.328125,-62.5,-43.9453125,-34.66796875,-54.19921875
156.33203125,-64.453125,-44.921875,-32.2265625,-62.98828125
156.3359375,-39.55078125,-44.43359375,-28.80859375,-56.15234375
156.33984375,-32.2265625,-43.9453125,-27.83203125,-31.25
156.34375,-39.0625,-46.38671875,-31.25,-17.578125
156.34765625,-38.57421875,-49.8046875,-29.296875,-21.484375
156.3515625,-33.203125,-51.26953125,-39.55078125,-27.83203125
156.35546875,-26.3671875,-45.41015625,-44.43359375,-32.71484375
156.359375,-39.55078125,-48.828125,-39.0625,-41.015625
156.36328125,-43.45703125,-51.7578125,-48.828125,-42.48046875
156.3671875,-14.6484375,-42.48046875,-43.9453125,-34.1796875
156.37109375,-14.6484375,-44.43359375,-23.4375,-31.73828125
156.375,-48.828125,-46.38671875,-30.2734375,-38.57421875
156.37890625,-59.5703125,-41.50390625,-36.1328125,-47.8515625
156.3828125,-29.78515625,-41.9921875,-25.87890625,-39.55078125
156.38671875,-12.6953125,-33.69140625,-29.296875,-33.69140625
156.390625,-33.203125,-28.80859375,-33.203125,-30.76171875
156.39453125,-39.55078125,-28.3203125,-29.78515625,-26.85546875
156.3984375,-35.64453125,-33.69140625,-24.90234375,-27.83203125
156.40234375,-35.64453125,-43.9453125,-23.92578125,-32.71484375
156.40625,-43.45703125,-43.45703125,-27.83203125,-48.828125
156.41015625,-53.22265625,-36.62109375,-25.390625,-48.33984375
156.4140625,-49.31640625,-37.109375,-20.5078125,-40.0390625
156.41796875,-35.15625,-38.57421875,-22.4609375,-40.0390625
156.421875,-47.36328125,-41.015625,-23.92578125,-49.31640625
156.42578125,-74.70703125,-42.96875,-25.390625,-62.01171875
156.4296875,-64.94140625,-49.8046875,-30.76171875,-53.7109375
156.43359375,-41.015625,-55.17578125,-30.2734375,-34.66796875
156.4375,-30.76171875,-47.8515625,-32.71484375,-27.34375
156.44140625,-31.25,-43.45703125,-31.25,-37.109375
156.4453125,-45.41015625,-44.43359375,-35.15625,-37.59765625
156.44921875,-37.109375,-41.50390625,-38.57421875,-21.484375
156.453125,-32.71484375,-48.828125,-42.96875,-27.34375
156.45703125,-51.26953125,-51.26953125,-52.734375,-51.26953125
156.4609375,-69.82421875,-50.29296875,-60.05859375,-72.75390625
156.46484375,-59.5703125,-51.7578125,-56.15234375,-64.453125
156.46875,-43.9453125,-47.36328125,-44.921875,-60.05859375
156.47265625,-61.5234375,-49.31640625,-43.9453125,-65.4296875
156.4765625,-79.1015625,-60.546875,-52.24609375,-62.98828125
156.48046875,-69.3359375,-60.546875,-56.15234375,-49.8046875
156.484375,-37.109375,-54.19921875,-55.17578125,-32.2265625
156.48828125,-26.3671875,-46.38671875,-48.828125,-24.4140625
156.4921875,-41.9921875,-46.875,-47.8515625,-32.2265625
156.49609375,-48.33984375,-43.45703125,-49.8046875,-42.48046875
156.5,-46.38671875,-44.43359375,-61.5234375,-57.12890625
156.50390625,-68.359375,-69.3359375,-80.56640625,-87.40234375
156.5078125,-82.03125,-75.68359375,-78.125,-82.51953125
156.51171875,-83.49609375,-72.75390625,-65.91796875,-74.21875
156.515625,-68.359375,-65.91796875,-59.08203125,-61.03515625
156.51953125,-30.2734375,-49.8046875,-59.08203125,-45.41015625
156.5234375,-34.1796875,-48.33984375,-61.03515625,-45.8984375
156.52734375,-68.84765625,-54.6875,-70.80078125,-57.12890625
156.53125,-66.89453125,-60.546875,-72.265625,-61.03515625
156.53515625,-41.015625,-53.7109375,-59.5703125,-55.17578125
156.5390625,-35.15625,-50.78125,-51.26953125,-51.26953125
156.54296875,-55.17578125,-52.24609375,-47.36328125,-67.3828125
156.546875,-66.40625,-58.59375,-50.29296875,-87.890625
156.55078125,-68.359375,-66.89453125,-62.98828125,-90.33203125
156.5546875,-55.17578125,-55.6640625,-62.01171875,-72.265625
156.55859375,-63.96484375,-54.19921875,-53.7109375,-61.03515625
156.5625,-62.98828125,-58.59375,-51.26953125,-59.5703125
156.56640625,-35.64453125,-52.24609375,-50.29296875,-44.43359375
156.5703125,-32.71484375,-47.8515625,-50.78125,-37.109375
156.57421875,-49.31640625,-48.828125,-56.640625,-52.24609375
156.578125,-62.01171875,-59.5703125,-63.96484375,-62.5
156.58203125,-57.12890625,-62.01171875,-62.98828125,-59.08203125
156.5859375,-52.24609375,-62.5,-61.03515625,-63.4765625
156.58984375,-71.2890625,-68.84765625,-64.94140625,-70.3125
156.59375,-97.16796875,-68.84765625,-71.77734375,-73.73046875
156.59765625,-89.35546875,-70.3125,-66.89453125,-57.12890625
156.6015625,-59.08203125,-73.73046875,-58.10546875,-48.33984375
156.60546875,-58.10546875,-72.75390625,-51.26953125,-49.8046875
156.609375,-65.4296875,-71.2890625,-59.5703125,-53.22265625
156.61328125,-59.5703125,-66.40625,-57.6171875,-60.05859375
156.6171875,-58.59375,-67.87109375,-44.43359375,-67.87109375
156.62109375,-65.91796875,-72.265625,-40.52734375,-69.3359375
156.625,-73.2421875,-74.70703125,-53.7109375,-74.70703125
156.62890625,-85.9375,-68.84765625,-51.7578125,-83.0078125
156.6328125,-69.82421875,-62.98828125,-43.9453125,-70.80078125
156.63671875,-50.78125,-61.5234375,-54.19921875,-51.7578125
156.640625,-66.89453125,-55.6640625,-51.26953125,-54.6875
156.64453125,-73.2421875,-51.26953125,-45.41015625,-57.12890625
156.6484375,-43.45703125,-43.45703125,-36.62109375,-33.69140625
156.65234375,-24.4140625,-39.0625,-36.1328125,-33.69140625
156.65625,-44.921875,-51.7578125,-45.8984375,-63.96484375
156.66015625,-44.921875,-47.8515625,-41.50390625,-59.5703125
156.6640625,-26.85546875,-37.59765625,-33.69140625,-40.0390625
156.66796875,-27.83203125,-42.48046875,-32.71484375,-34.1796875
156.671875,-31.25,-42.48046875,-30.2734375,-27.83203125
156.67578125,-39.55078125,-33.203125,-25.87890625,-28.3203125
156.6796875,-52.734375,-38.57421875,-33.69140625,-33.69140625
156.68359375,-41.9921875,-49.8046875,-36.1328125,-28.3203125
156.6875,-23.92578125,-42.96875,-33.69140625,-21.97265625
156.69140625,-38.57421875,-36.1328125,-41.9921875,-29.296875
156.6953125,-58.10546875,-45.8984375,-43.45703125,-39.55078125
156.69921875,-39.0625,-47.36328125,-42.48046875,-32.2265625
156.703125,-26.85546875,-41.015625,-39.0625,-23.4375
156.70703125,-36.62109375,-42.96875,-38.57421875,-30.2734375
156.7109375,-42.48046875,-49.31640625,-40.52734375,-43.9453125
156.71484375,-50.29296875,-51.26953125,-35.15625,-49.31640625
156.71875,-45.8984375,-49.8046875,-40.52734375,-38.57421875
156.72265625,-52.24609375,-55.6640625,-45.41015625,-38.0859375
156.7265625,-53.22265625,-61.03515625,-31.25,-37.59765625
156.73046875,-41.9921875,-57.12890625,-28.80859375,-33.203125
156.734375,-33.203125,-49.31640625,-33.69140625,-35.64453125
156.73828125,-27.83203125,-40.52734375,-34.66796875,-37.109375
156.7421875,-45.8984375,-40.0390625,-41.9921875,-36.62109375
156.74609375,-55.6640625,-34.66796875,-39.55078125,-35.64453125
156.75,-38.0859375,-35.64453125,-35.64453125,-33.203125
156.75390625,-35.64453125,-46.38671875,-36.62109375,-38.57421875
156.7578125,-49.31640625,-49.31640625,-37.109375,-39.55078125
156.76171875,-54.6875,-44.921875,-29.296875,-35.15625
156.765625,-52.24609375,-45.8984375,-22.94921875,-50.29296875
156.76953125,-27.34375,-40.0390625,-28.80859375,-46.38671875
156.7734375,-21.97265625,-29.78515625,-28.80859375,-31.25
156.77734375,-41.9921875,-31.73828125,-27.34375,-37.59765625
156.78125,-37.59765625,-30.76171875,-26.3671875,-38.0859375
156.78515625,-23.4375,-26.3671875,-32.2265625,-29.296875
156.7890625,-31.73828125,-37.109375,-40.0390625,-29.296875
156.79296875,-44.921875,-46.875,-41.9921875,-44.921875
156.796875,-55.6640625,-46.875,-46.38671875,-51.7578125
156.80078125,-45.41015625,-44.921875,-46.38671875,-50.29296875
156.8046875,-31.73828125,-48.828125,-44.921875,-41.50390625
156.80859375,-42.96875,-49.31640625,-41.015625,-31.73828125
156.8125,-60.546875,-44.43359375,-43.45703125,-37.59765625
156.81640625,-55.17578125,-47.36328125,-40.0390625,-39.0625
156.8203125,-48.33984375,-54.19921875,-45.41015625,-33.203125
156.82421875,-69.82421875,-56.15234375,-61.03515625,-51.26953125
156.828125,-81.54296875,-62.5,-61.5234375,-71.77734375
156.83203125,-61.5234375,-63.96484375,-57.6171875,-55.17578125
156.8359375,-49.31640625,-58.10546875,-54.6875,-43.9453125
156.83984375,-49.31640625,-57.6171875,-43.45703125,-57.12890625
156.84375,-46.875,-60.05859375,-49.8046875,-53.7109375
156.84765625,-37.109375,-59.08203125,-54.6875,-35.64453125
156.8515625,-36.1328125,-49.8046875,-47.8515625,-40.52734375
156.85546875,-49.8046875,-46.875,-49.31640625,-55.6640625
156.859375,-64.94140625,-51.7578125,-53.7109375,-64.94140625
156.86328125,-62.98828125,-52.734375,-44.43359375,-56.640625
156.8671875,-35.15625,-48.828125,-47.8515625,-50.29296875
156.87109375,-20.5078125,-45.41015625,-64.94140625,-51.26953125
156.875,-36.62109375,-46.875,-54.19921875,-49.8046875
156.87890625,-41.9921875,-48.33984375,-45.8984375,-40.52734375
156.8828125,-34.1796875,-53.22265625,-50.29296875,-41.50390625
156.88671875,-24.4140625,-52.734375,-51.7578125,-50.78125
156.890625,-32.71484375,-53.22265625,-58.59375,-46.875
156.89453125,-52.24609375,-58.10546875,-67.3828125,-43.45703125
156.8984375,-53.7109375,-62.98828125,-62.98828125,-41.015625
156.90234375,-50.78125,-62.01171875,-53.7109375,-50.78125
156.90625,-62.01171875,-53.22265625,-46.38671875,-53.22265625
156.91015625,-62.5,-52.734375,-34.66796875,-40.52734375
156.9140625,-56.640625,-62.5,-35.15625,-35.64453125
156.91796875,-39.55078125,-62.01171875,-45.8984375,-25.87890625
156.921875,-38.0859375,-55.17578125,-55.6640625,-32.2265625
156.92578125,-58.59375,-53.7109375,-44.921875,-49.31640625
156.9296875,-62.01171875,-59.5703125,-30.76171875,-47.8515625
156.93359375,-45.41015625,-55.6640625,-40.0390625,-42.48046875
156.9375,-33.203125,-50.78125,-44.43359375,-39.55078125
156.94140625,-54.6875,-49.31640625,-39.55078125,-51.26953125
156.9453125,-67.3828125,-53.22265625,-40.52734375,-59.08203125
156.94921875,-56.15234375,-57.12890625,-42.96875,-55.6640625
156.953125,-45.41015625,-56.15234375,-51.26953125,-50.78125
156.95703125,-51.26953125,-47.8515625,-54.19921875,-51.7578125
156.9609375,-55.6640625,-47.36328125,-50.29296875,-55.6640625
156.96484375,-55.6640625,-57.12890625,-45.41015625,-53.22265625
156.96875,-36.62109375,-59.5703125,-49.31640625,-50.29296875
156.97265625,-34.66796875,-55.17578125,-57.12890625,-57.6171875
156.9765625,-62.98828125,-58.59375,-60.546875,-74.21875
156.98046875,-62.01171875,-55.17578125,-59.5703125,-68.359375
156.984375,-43.9453125,-46.875,-44.921875,-57.12890625
156.98828125,-43.45703125,-46.38671875,-45.41015625,-67.3828125
156.9921875,-50.29296875,-50.78125,-54.6875,-66.40625
156.99609375,-65.4296875,-63.4765625,-63.4765625,-64.94140625
157.0,-67.87109375,-75.1953125,-74.70703125,-70.80078125
157.00390625,-54.6875,-61.5234375,-73.2421875,-62.5
157.0078125,-55.17578125,-52.24609375,-57.12890625,-52.24609375
157.01171875,-57.6171875,-58.10546875,-49.31640625,-52.24609375
157.015625,-47.36328125,-49.8046875,-45.8984375,-43.45703125
157.01953125,-40.0390625,-43.45703125,-41.50390625,-48.33984375
157.0234375,-46.875,-47.8515625,-51.7578125,-57.6171875
157.02734375,-51.26953125,-52.734375,-64.94140625,-49.31640625
157.03125,-51.7578125,-56.15234375,-62.5,-44.43359375
157.03515625,-26.85546875,-51.7578125,-55.6640625,-38.57421875
157.0390625,-26.85546875,-50.78125,-53.7109375,-42.48046875
157.04296875,-40.0390625,-48.828125,-55.17578125,-38.57421875
157.046875,-30.2734375,-43.45703125,-52.734375,-24.4140625
157.05078125,-17.578125,-39.0625,-42.96875,-26.85546875
157.0546875,-19.04296875,-37.59765625,-43.45703125,-37.109375
157.05859375,-33.203125,-37.59765625,-38.0859375,-43.9453125
157.0625,-50.78125,-38.57421875,-37.109375,-52.734375
157.06640625,-34.1796875,-31.73828125,-43.45703125,-49.31640625
157.0703125,-28.3203125,-37.109375,-43.45703125,-42.96875
157.07421875,-37.109375,-42.96875,-34.66796875,-41.015625
157.078125,-39.0625,-39.0625,-33.69140625,-47.8515625
157.08203125,-39.0625,-43.9453125,-41.50390625,-56.15234375
157.0859375,-24.90234375,-53.22265625,-40.52734375,-41.9921875
157.08984375,-41.50390625,-47.8515625,-41.015625,-38.57421875
157.09375,-57.12890625,-38.0859375,-40.0390625,-41.9921875
157.09765625,-38.57421875,-35.15625,-32.2265625,-26.85546875
157.1015625,-29.78515625,-41.50390625,-40.52734375,-31.25
157.10546875,-39.0625,-46.875,-40.52734375,-54.6875
157.109375,-53.22265625,-47.8515625,-28.80859375,-63.4765625
157.11328125,-65.91796875,-55.17578125,-31.25,-63.4765625
157.1171875,-54.19921875,-61.03515625,-38.57421875,-53.7109375
157.12109375,-44.921875,-64.94140625,-49.31640625,-53.22265625
157.125,-54.19921875,-62.5,-50.78125,-62.5
157.12890625,-45.41015625,-53.7109375,-42.48046875,-57.12890625
157.1328125,-36.1328125,-47.36328125,-42.48046875,-44.43359375
157.13671875,-41.015625,-49.8046875,-47.8515625,-46.38671875
157.140625,-41.50390625,-47.36328125,-49.8046875,-54.19921875
157.14453125,-47.36328125,-40.0390625,-50.78125,-51.7578125
157.1484375,-44.43359375,-44.43359375,-49.31640625,-44.921875
157.15234375,-35.64453125,-44.921875,-39.55078125,-35.64453125
157.15625,-45.41015625,-44.43359375,-32.2265625,-33.203125
157.16015625,-51.26953125,-47.36328125,-35.64453125,-36.1328125
157.1640625,-38.0859375,-38.57421875,-38.0859375,-28.3203125
157.16796875,-37.59765625,-41.9921875,-31.25,-32.2265625
157.171875,-45.41015625,-55.17578125,-31.25,-42.48046875
157.17578125,-54.19921875,-52.24609375,-34.1796875,-41.015625
157.1796875,-59.08203125,-50.78125,-37.109375,-39.0625
157.18359375,-49.8046875,-49.8046875,-41.9921875,-38.0859375
157.1875,-45.41015625,-57.12890625,-43.45703125,-50.29296875
157.19140625,-51.7578125,-52.24609375,-37.59765625,-50.78125
157.1953125,-51.7578125,-46.875,-43.9453125,-39.55078125
157.19921875,-52.734375,-54.6875,-53.22265625,-48.828125
157.203125,-42.96875,-54.19921875,-41.9921875,-42.96875
157.20703125,-43.45703125,-53.22265625,-35.64453125,-34.1796875
157.2109375,-60.546875,-55.17578125,-40.0390625,-49.8046875
157.21484375,-50.78125,-44.921875,-36.62109375,-49.31640625
157.21875,-36.62109375,-49.8046875,-35.64453125,-43.9453125
157.22265625,-55.6640625,-64.94140625,-50.78125,-53.22265625
157.2265625,-83.49609375,-68.84765625,-57.6171875,-68.84765625
157.23046875,-81.0546875,-66.40625,-46.875,-65.91796875
157.234375,-65.91796875,-62.98828125,-47.8515625,-59.08203125
157.23828125,-56.640625,-59.5703125,-47.36328125,-56.15234375
157.2421875,-61.03515625,-55.6640625,-38.57421875,-59.5703125
157.24609375,-64.453125,-55.6640625,-53.7109375,-50.78125
157.25,-45.41015625,-48.33984375,-62.98828125,-31.25
157.25390625,-30.2734375,-42.96875,-42.48046875,-35.15625
157.2578125,-48.33984375,-49.8046875,-39.55078125,-49.31640625
157.26171875,-58.10546875,-53.22265625,-47.36328125,-48.33984375
157.265625,-40.52734375,-50.78125,-45.8984375,-37.109375
157.26953125,-28.80859375,-45.8984375,-39.0625,-38.0859375
157.2734375,-28.3203125,-37.109375,-28.80859375,-45.8984375
157.27734375,-41.9921875,-26.85546875,-22.4609375,-52.24609375
157.28125,-34.1796875,-25.87890625,-18.5546875,-42.96875
157.28515625,-5.37109375,-25.390625,-19.04296875,-23.92578125
157.2890625,-12.20703125,-29.296875,-23.92578125,-25.390625
157.29296875,-22.4609375,-32.71484375,-30.2734375,-25.87890625
157.296875,-27.34375,-36.1328125,-26.3671875,-22.4609375
157.30078125,-26.85546875,-34.1796875,-26.85546875,-26.3671875
157.3046875,-35.15625,-30.2734375,-31.25,-32.71484375
157.30859375,-54.6875,-41.9921875,-33.203125,-44.921875
157.3125,-50.78125,-50.78125,-33.203125,-44.921875
157.31640625,-29.78515625,-44.43359375,-25.87890625,-37.59765625
157.3203125,-22.4609375,-41.9921875,-34.66796875,-37.109375
157.32421875,-36.62109375,-48.33984375,-54.6875,-45.8984375
157.328125,-36.62109375,-46.875,-62.01171875,-39.0625
157.33203125,-27.83203125,-39.55078125,-50.78125,-35.64453125
157.3359375,-30.76171875,-35.64453125,-38.0859375,-48.828125
157.33984375,-48.828125,-39.55078125,-32.71484375,-59.5703125
157.34375,-64.94140625,-46.38671875,-34.1796875,-65.4296875
157.34765625,-57.12890625,-42.48046875,-31.25,-57.6171875
157.3515625,-41.9921875,-39.0625,-27.83203125,-50.78125
157.35546875,-43.9453125,-47.8515625,-40.52734375,-43.45703125
157.359375,-47.8515625,-56.15234375,-42.96875,-43.9453125
157.36328125,-40.52734375,-52.734375,-41.9921875,-51.26953125
157.3671875,-25.87890625,-43.9453125,-44.921875,-39.55078125
157.37109375,-21.484375,-37.59765625,-47.36328125,-29.296875
157.375,-42.96875,-38.57421875,-35.15625,-39.0625
157.37890625,-52.734375,-41.50390625,-28.80859375,-47.8515625
157.3828125,-51.26953125,-53.22265625,-38.0859375,-54.19921875
157.38671875,-45.41015625,-50.78125,-32.2265625,-53.22265625
157.390625,-53.7109375,-35.15625,-34.1796875,-47.36328125
157.39453125,-62.98828125,-37.59765625,-34.66796875,-37.109375
157.3984375,-37.109375,-41.015625,-33.203125,-24.90234375
157.40234375,-23.4375,-37.109375,-36.62109375,-24.90234375
157.40625,-35.64453125,-32.2265625,-25.390625,-28.80859375
157.41015625,-48.33984375,-29.78515625,-22.94921875,-35.15625
157.4140625,-52.734375,-37.59765625,-32.71484375,-45.41015625
157.41796875,-36.1328125,-36.62109375,-27.34375,-33.69140625
157.421875,-30.76171875,-29.296875,-12.20703125,-29.78515625
157.42578125,-37.109375,-28.80859375,-9.765625,-38.57421875
157.4296875,-32.71484375,-25.390625,-24.4140625,-32.2265625
157.43359375,-28.3203125,-22.4609375,-27.83203125,-27.83203125
157.4375,-13.18359375,-21.97265625,-25.390625,-22.4609375
157.44140625,-19.04296875,-19.53125,-25.87890625,-31.25
157.4453125,-34.1796875,-21.484375,-21.484375,-34.1796875
157.44921875,-19.04296875,-23.4375,-20.5078125,-22.94921875
157.453125,-7.8125,-33.203125,-21.97265625,-24.90234375
157.45703125,-26.85546875,-33.69140625,-27.34375,-39.0625
157.4609375,-47.8515625,-33.69140625,-28.80859375,-48.33984375
157.46484375,-38.57421875,-35.15625,-25.87890625,-29.78515625
157.46875,-16.6015625,-34.66796875,-25.390625,-24.4140625
157.47265625,-22.94921875,-38.0859375,-29.78515625,-33.69140625
157.4765625,-39.0625,-38.57421875,-24.90234375,-26.85546875
157.48046875,-36.1328125,-29.296875,-19.04296875,-16.11328125
157.484375,-23.4375,-30.76171875,-21.484375,-20.5078125
157.48828125,-22.94921875,-38.0859375,-28.3203125,-28.80859375
157.4921875,-38.57421875,-30.2734375,-27.83203125,-29.296875
157.49609375,-36.62109375,-24.90234375,-19.53125,-28.80859375
157.5,-22.4609375,-32.71484375,-17.08984375,-24.4140625
157.50390625,-16.6015625,-30.76171875,-12.20703125,-27.34375
157.5078125,-32.71484375,-25.87890625,-18.06640625,-36.62109375
157.51171875,-42.48046875,-22.4609375,-26.85546875,-41.015625
157.515625,-20.99609375,-23.4375,-25.390625,-28.80859375
157.51953125,-8.30078125,-20.5078125,-24.4140625,-24.4140625
157.5234375,-23.92578125,-20.99609375,-29.296875,-37.109375
157.52734375,-36.1328125,-26.3671875,-25.390625,-37.59765625
157.53125,-33.69140625,-27.83203125,-17.578125,-37.59765625
157.53515625,-24.90234375,-23.4375,-23.92578125,-33.203125
157.5390625,-35.15625,-21.484375,-27.34375,-42.96875
157.54296875,-67.87109375,-33.203125,-20.01953125,-57.12890625
157.546875,-68.84765625,-33.69140625,-14.6484375,-56.640625
157.55078125,-75.1953125,-54.6875,-27.34375,-81.54296875
157.5546875,-86.42578125,-67.3828125,-41.015625,-102.05078125
157.55859375,-108.88671875,-56.15234375,-42.96875,-112.3046875
157.5625,-111.328125,-44.43359375,-37.59765625,-103.515625
157.56640625,-88.8671875,-30.2734375,-20.01953125,-81.0546875
157.5703125,-93.26171875,-23.92578125,-22.94921875,-76.66015625
157.57421875,-131.8359375,-39.0625,-37.59765625,-111.328125
157.578125,-154.78515625,-42.96875,-33.203125,-142.578125
157.58203125,-146.484375,-33.69140625,-39.55078125,-139.6484375
157.5859375,-142.578125,-32.2265625,-40.52734375,-137.20703125
157.58984375,-170.41015625,-43.45703125,-44.921875,-166.50390625
157.59375,-207.51953125,-53.22265625,-59.08203125,-197.265625
157.59765625,-206.54296875,-54.19921875,-60.546875,-194.3359375
157.6015625,-202.63671875,-58.59375,-50.29296875,-183.10546875
157.60546875,-215.8203125,-54.6875,-45.41015625,-197.265625
157.609375,-222.16796875,-46.38671875,-42.48046875,-204.1015625
157.61328125,-224.12109375,-43.9453125,-46.875,-205.078125
157.6171875,-203.125,-46.38671875,-46.875,-213.37890625
157.62109375,-205.56640625,-51.7578125,-48.828125,-221.6796875
157.625,-231.4453125,-55.17578125,-53.22265625,-225.09765625
157.62890625,-223.6328125,-52.24609375,-47.8515625,-214.84375
157.6328125,-208.984375,-61.5234375,-55.17578125,-212.890625
157.63671875,-215.8203125,-68.84765625,-62.98828125,-231.4453125
157.640625,-217.7734375,-62.98828125,-61.03515625,-230.95703125
157.64453125,-215.33203125,-60.546875,-60.05859375,-211.9140625
157.6484375,-203.125,-61.03515625,-62.98828125,-196.2890625
157.65234375,-173.33984375,-53.7109375,-52.734375,-169.921875
157.65625,-161.1328125,-44.921875,-45.8984375,-157.2265625
157.66015625,-183.10546875,-52.734375,-59.08203125,-183.10546875
157.6640625,-178.22265625,-55.6640625,-59.5703125,-166.9921875
157.66796875,-146.484375,-53.7109375,-60.05859375,-135.25390625
157.671875,-147.4609375,-54.19921875,-68.84765625,-139.6484375
157.67578125,-153.3203125,-48.828125,-57.6171875,-126.46484375
157.6796875,-128.41796875,-49.31640625,-57.12890625,-100.5859375
157.68359375,-110.83984375,-53.22265625,-79.58984375,-94.23828125
157.6875,-105.46875,-55.6640625,-78.61328125,-88.37890625
157.69140625,-93.75,-44.921875,-62.5,-75.1953125
157.6953125,-87.890625,-42.96875,-73.73046875,-63.96484375
157.69921875,-66.40625,-48.33984375,-78.61328125,-57.12890625
157.703125,-47.36328125,-52.734375,-70.3125,-59.08203125
157.70703125,-56.640625,-45.8984375,-86.42578125,-70.80078125
157.7109375,-64.94140625,-35.64453125,-83.0078125,-60.05859375
157.71484375,-30.2734375,-43.45703125,-69.82421875,-29.296875
157.71875,11.23046875,-41.50390625,-70.3125,-8.30078125
157.72265625,20.01953125,-25.87890625,-57.6171875,-4.39453125
157.7265625,16.11328125,-26.3671875,-41.50390625,6.8359375
157.73046875,34.1796875,-16.6015625,-41.015625,39.55078125
157.734375,41.50390625,-7.32421875,-62.98828125,47.8515625
157.73828125,28.3203125,-7.32421875,-67.87109375,30.2734375
157.7421875,5.37109375,-20.01953125,-61.03515625,20.01953125
157.74609375,-17.578125,-32.2265625,-65.91796875,20.01953125
157.75,-11.23046875,-35.15625,-79.58984375,14.16015625
157.75390625,0.48828125,-39.55078125,-90.8203125,5.859375
157.7578125,8.7890625,-37.59765625,-80.078125,8.30078125
157.76171875,21.484375,-34.1796875,-65.91796875,2.9296875
157.765625,28.3203125,-31.25,-65.4296875,-3.90625
157.76953125,41.9921875,-18.5546875,-56.15234375,15.13671875
157.7734375,52.24609375,-20.01953125,-53.7109375,26.3671875
157.77734375,45.41015625,-25.87890625,-52.24609375,22.94921875
157.78125,40.0390625,-23.92578125,-51.26953125,24.90234375
157.78515625,55.6640625,-17.08984375,-42.96875,36.1328125
157.7890625,61.5234375,-11.71875,-32.2265625,35.15625
157.79296875,62.01171875,-7.32421875,-34.66796875,36.62109375
157.796875,63.96484375,-8.30078125,-23.4375,48.828125
157.80078125,80.078125,-13.18359375,-14.16015625,61.5234375
157.8046875,89.84375,-8.30078125,-6.8359375,70.80078125
157.80859375,72.75390625,3.90625,0.9765625,70.80078125
157.8125,62.5,0.0,-5.37109375,63.4765625
157.81640625,72.75390625,-5.859375,-18.5546875,78.125
157.8203125,78.125,-11.23046875,-25.390625,77.1484375
157.82421875,57.6171875,-13.671875,-18.5546875,61.03515625
157.828125,37.109375,-4.39453125,-18.06640625,55.6640625
157.83203125,51.26953125,-5.37109375,-22.4609375,50.29296875
157.8359375,66.89453125,-5.37109375,-25.87890625,43.9453125
157.83984375,46.38671875,-8.7890625,-31.73828125,29.78515625
157.84375,18.5546875,-17.578125,-46.38671875,35.15625
157.84765625,18.06640625,-26.85546875,-54.6875,32.71484375
157.8515625,27.34375,-35.64453125,-47.8515625,27.83203125
157.85546875,13.671875,-31.25,-43.9453125,17.08984375
157.859375,1.46484375,-34.1796875,-45.8984375,1.953125
157.86328125,-2.44140625,-41.9921875,-51.26953125,4.39453125
157.8671875,9.765625,-18.06640625,-58.59375,9.765625
157.87109375,25.390625,-22.94921875,-53.22265625,17.08984375
157.875,10.25390625,-50.78125,-48.828125,7.32421875
157.87890625,8.7890625,-49.31640625,-46.875,12.20703125
157.8828125,30.2734375,-40.52734375,-33.203125,45.41015625
157.88671875,44.43359375,-38.57421875,-16.6015625,52.734375
157.890625,30.2734375,-40.0390625,-24.4140625,39.55078125
157.89453125,26.85546875,-38.0859375,-26.3671875,46.38671875
157.8984375,54.19921875,-37.109375,-20.01953125,56.640625
157.90234375,58.10546875,-33.69140625,-21.97265625,41.50390625
157.90625,32.71484375,-20.99609375,-29.296875,17.578125
157.91015625,10.7421875,-25.390625,-27.34375,1.953125
157.9140625,17.08984375,-34.66796875,-18.5546875,3.90625
157.91796875,22.94921875,-25.87890625,-10.7421875,14.6484375
157.921875,23.4375,-18.5546875,-0.9765625,19.04296875
157.92578125,9.27734375,-14.6484375,-10.25390625,7.32421875
157.9296875,-18.06640625,-37.109375,-44.43359375,-17.578125
157.93359375,-9.765625,-46.875,-42.48046875,-15.625
157.9375,4.8828125,-29.78515625,-26.85546875,-7.8125
157.94140625,-3.90625,-33.203125,-25.390625,-8.30078125
157.9453125,-10.7421875,-40.0390625,-23.4375,-3.90625
157.94921875,-0.9765625,-33.69140625,-16.6015625,4.8828125
157.953125,14.6484375,-38.0859375,-9.765625,9.765625
157.95703125,4.8828125,-33.203125,-16.6015625,4.8828125
157.9609375,-3.41796875,-26.85546875,-7.32421875,9.27734375
157.96484375,24.4140625,-23.92578125,10.25390625,25.87890625
157.96875,29.78515625,-24.90234375,-7.32421875,32.71484375
157.97265625,19.53125,-26.3671875,-14.16015625,30.2734375
157.9765625,16.6015625,-19.53125,-8.30078125,38.57421875
157.98046875,19.04296875,-19.53125,-11.71875,50.29296875
157.984375,39.0625,-27.34375,-17.08984375,47.8515625
157.98828125,42.48046875,-31.25,-14.6484375,31.73828125
157.9921875,10.7421875,-34.1796875,-24.90234375,15.625
157.99609375,-1.46484375,-38.57421875,-27.83203125,22.4609375
158.0,8.30078125,-45.41015625,-36.62109375,14.6484375
158.00390625,11.71875,-40.52734375,-49.8046875,-5.37109375
158.0078125,-8.7890625,-21.484375,-46.875,-20.99609375
158.01171875,-26.85546875,-31.25,-50.78125,-15.625
158.015625,-12.6953125,-45.41015625,-54.6875,-5.37109375
158.01953125,-2.44140625,-44.921875,-53.7109375,-17.578125
158.0234375,-22.4609375,-52.24609375,-55.6640625,-37.59765625
158.02734375,-41.50390625,-60.05859375,-62.5,-44.43359375
158.03125,-39.55078125,-57.6171875,-68.359375,-35.64453125
158.03515625,-20.99609375,-54.19921875,-70.3125,-31.25
158.0390625,-25.87890625,-58.59375,-66.89453125,-38.0859375
158.04296875,-45.8984375,-64.453125,-69.3359375,-47.36328125
158.046875,-59.08203125,-52.24609375,-71.77734375,-54.6875
158.05078125,-51.26953125,-51.26953125,-62.98828125,-58.10546875
158.0546875,-62.01171875,-66.89453125,-64.94140625,-68.359375
158.05859375,-82.03125,-69.3359375,-75.1953125,-72.75390625
158.0625,-80.078125,-66.89453125,-68.359375,-69.3359375
158.06640625,-61.5234375,-53.7109375,-62.5,-63.96484375
158.0703125,-37.109375,-43.45703125,-53.7109375,-44.43359375
158.07421875,-36.62109375,-40.52734375,-40.0390625,-31.73828125
158.078125,-45.41015625,-40.0390625,-43.9453125,-30.76171875
158.08203125,-29.78515625,-41.015625,-49.8046875,-25.390625
158.0859375,-21.484375,-48.33984375,-58.59375,-30.76171875
158.08984375,-38.57421875,-54.6875,-67.3828125,-41.9921875
158.09375,-55.17578125,-60.546875,-68.359375,-40.0390625
158.09765625,-54.6875,-58.59375,-62.98828125,-34.66796875
158.1015625,-38.0859375,-60.05859375,-51.26953125,-31.25
158.10546875,-30.2734375,-62.98828125,-48.33984375,-34.1796875
158.109375,-47.36328125,-63.4765625,-57.12890625,-32.2265625
158.11328125,-45.41015625,-66.89453125,-60.546875,-20.99609375
158.1171875,-23.4375,-58.10546875,-58.59375,-19.04296875
158.12109375,-18.5546875,-43.9453125,-52.24609375,-23.92578125
158.125,-17.578125,-37.109375,-43.45703125,-24.4140625
158.12890625,-18.5546875,-36.62109375,-40.0390625,-31.25
158.1328125,-33.69140625,-48.33984375,-64.453125,-41.9921875
158.13671875,-19.53125,-42.48046875,-55.6640625,-31.25
158.140625,-8.7890625,-35.64453125,-26.85546875,-20.99609375
158.14453125,-28.3203125,-31.73828125,-31.73828125,-26.3671875
158.1484375,-27.83203125,-28.3203125,-33.69140625,-21.97265625
158.15234375,-14.6484375,-39.0625,-32.2265625,-19.53125
158.15625,-18.06640625,-36.1328125,-39.0625,-28.3203125
158.16015625,-43.9453125,-33.203125,-36.62109375,-36.1328125
158.1640625,-41.50390625,-31.73828125,-34.1796875,-29.78515625
158.16796875,-21.97265625,-26.85546875,-38.0859375,-21.484375
158.171875,-20.01953125,-33.69140625,-41.9921875,-24.4140625
158.17578125,-25.87890625,-31.73828125,-39.0625,-28.3203125
158.1796875,-33.203125,-25.87890625,-38.0859375,-33.69140625
158.18359375,-17.08984375,-26.3671875,-40.52734375,-32.2265625
158.1875,-3.41796875,-21.484375,-35.15625,-15.625
158.19140625,-12.20703125,-20.99609375,-29.296875,-10.7421875
158.1953125,-8.30078125,-19.04296875,-30.2734375,-13.18359375
158.19921875,0.48828125,-17.08984375,-33.203125,-8.7890625
158.203125,16.11328125,-12.6953125,-32.2265625,-0.48828125
158.20703125,11.23046875,-10.7421875,-36.1328125,-0.9765625
158.2109375,-12.20703125,-17.578125,-38.57421875,-17.08984375
158.21484375,-13.18359375,-25.87890625,-37.109375,-23.92578125
158.21875,-4.39453125,-32.2265625,-49.8046875,-22.4609375
158.22265625,-6.8359375,-28.3203125,-58.10546875,-13.18359375
158.2265625,-12.20703125,-29.78515625,-43.45703125,-7.8125
158.23046875,-1.46484375,-20.99609375,-27.34375,3.90625
158.234375,14.6484375,-6.34765625,-19.04296875,14.16015625
158.23828125,17.578125,-3.41796875,-5.859375,13.18359375
158.2421875,-9.765625,-13.18359375,-8.7890625,-0.48828125
158.24609375,-23.4375,-21.484375,-24.90234375,-19.53125
158.25,-14.16015625,-22.94921875,-21.97265625,-11.71875
158.25390625,-5.859375,-14.6484375,-20.5078125,-12.6953125
158.2578125,-18.5546875,-8.30078125,-22.4609375,-19.53125
158.26171875,-36.62109375,-12.6953125,-19.53125,-22.94921875
158.265625,-27.34375,-17.578125,-16.6015625,-26.85546875
158.26953125,-7.8125,-11.23046875,-16.11328125,-18.5546875
158.2734375,-10.7421875,-14.16015625,-19.53125,-20.01953125
158.27734375,-25.87890625,-20.5078125,-21.484375,-18.5546875
158.28125,-31.73828125,-14.16015625,-16.6015625,-21.484375
158.28515625,-10.25390625,-9.765625,-5.859375,-17.08984375
158.2890625,2.9296875,-9.765625,6.34765625,-5.37109375
158.29296875,-2.44140625,-4.8828125,10.7421875,3.90625
158.296875,2.44140625,-0.9765625,2.9296875,14.6484375
158.30078125,7.8125,-8.7890625,-1.953125,5.859375
158.3046875,-6.34765625,-12.6953125,-4.8828125,-5.859375
158.30859375,-15.13671875,-7.32421875,-8.7890625,-5.37109375
158.3125,-21.484375,-12.6953125,-12.6953125,-12.20703125
158.31640625,-23.92578125,-24.4140625,-14.16015625,-10.7421875
158.3203125,-11.71875,-27.83203125,-19.04296875,-15.13671875
158.32421875,-15.13671875,-28.80859375,-23.92578125,-23.92578125
158.328125,-34.1796875,-34.1796875,-20.99609375,-17.08984375
158.33203125,-41.50390625,-38.0859375,-21.484375,-22.4609375
158.3359375,-27.34375,-44.43359375,-31.73828125,-29.296875
158.33984375,-28.3203125,-38.0859375,-34.66796875,-24.90234375
158.34375,-37.109375,-29.296875,-27.34375,-24.90234375
158.34765625,-22.94921875,-27.83203125,-25.87890625,-28.3203125
158.3515625,-11.71875,-23.4375,-30.2734375,-30.2734375
158.35546875,-5.37109375,-21.97265625,-30.76171875,-20.01953125
158.359375,-3.90625,-17.08984375,-19.04296875,-13.671875
158.36328125,-6.8359375,-6.8359375,-13.671875,-13.671875
158.3671875,17.578125,-3.90625,-14.16015625,-5.37109375
158.37109375,20.5078125,-3.90625,-17.578125,-17.08984375
158.375,-4.39453125,-4.8828125,-20.01953125,-23.4375
158.37890625,-8.7890625,-7.32421875,-15.625,-13.18359375
158.3828125,-1.953125,-21.484375,-10.7421875,-13.18359375
158.38671875,-1.953125,-26.85546875,-15.13671875,-12.20703125
158.390625,-4.8828125,-18.06640625,-16.6015625,-17.578125
158.39453125,-4.8828125,-16.6015625,-15.13671875,-21.97265625
158.3984375,-9.27734375,-23.92578125,-15.13671875,-22.94921875
158.40234375,-14.6484375,-25.87890625,-20.01953125,-29.296875
158.40625,-21.484375,-31.25,-26.85546875,-23.4375
158.41015625,-30.76171875,-35.15625,-21.97265625,-21.97265625
158.4140625,-28.3203125,-34.66796875,-22.4609375,-16.6015625
158.41796875,-18.06640625,-41.50390625,-29.78515625,0.0
158.421875,-26.3671875,-45.8984375,-31.73828125,-14.16015625
158.42578125,-35.64453125,-39.55078125,-28.80859375,-17.578125
158.4296875,-24.4140625,-31.73828125,-9.27734375,1.953125
158.43359375,-15.625,-32.2265625,-2.9296875,-11.23046875
158.4375,-6.8359375,-37.109375,-14.16015625,-8.30078125
158.44140625,-29.78515625,-41.015625,-18.5546875,-5.37109375
158.4453125,-43.9453125,-37.109375,-23.4375,-18.06640625
158.44921875,-17.08984375,-29.296875,-17.08984375,-6.34765625
158.453125,1.46484375,-22.94921875,1.953125,2.44140625
158.45703125,-1.46484375,-5.37109375,11.71875,0.9765625
158.4609375,-1.953125,0.0,13.18359375,-2.44140625
158.46484375,4.39453125,-14.16015625,9.27734375,-7.32421875
158.46875,-10.7421875,-22.94921875,6.34765625,-21.484375
158.47265625,-18.5546875,-24.90234375,-9.765625,-35.64453125
158.4765625,-36.1328125,-33.203125,-21.484375,-47.8515625
158.48046875,-52.24609375,-34.66796875,-15.13671875,-56.640625
158.484375,-35.64453125,-32.71484375,-18.5546875,-45.41015625
158.48828125,-29.78515625,-41.9921875,-30.76171875,-45.41015625
158.4921875,-36.62109375,-47.8515625,-38.0859375,-51.26953125
158.49609375,-31.73828125,-44.921875,-36.62109375,-52.734375
158.5,-29.296875,-53.7109375,-39.0625,-65.91796875
158.50390625,-38.0859375,-57.12890625,-42.48046875,-67.3828125
158.5078125,-28.80859375,-51.7578125,-40.52734375,-53.22265625
158.51171875,-32.2265625,-52.24609375,-43.9453125,-59.5703125
158.515625,-45.8984375,-51.26953125,-47.36328125,-56.640625
158.51953125,-33.69140625,-45.41015625,-41.9921875,-28.80859375
158.5234375,-37.59765625,-48.33984375,-37.59765625,-20.5078125
158.52734375,-49.8046875,-45.8984375,-32.2265625,-23.4375
158.53125,-39.55078125,-40.52734375,-26.85546875,-22.4609375
158.53515625,-33.203125,-43.45703125,-27.34375,-20.01953125
158.5390625,-34.66796875,-39.0625,-34.66796875,-30.2734375
158.54296875,-39.55078125,-36.62109375,-34.1796875,-21.484375
158.546875,-48.828125,-41.015625,-35.15625,-22.4609375
158.55078125,-43.9453125,-46.38671875,-35.15625,-43.45703125
158.5546875,-38.57421875,-47.8515625,-44.43359375,-60.05859375
158.55859375,-55.6640625,-51.26953125,-57.6171875,-69.3359375
158.5625,-68.84765625,-51.7578125,-62.01171875,-62.98828125
158.56640625,-51.7578125,-37.59765625,-56.15234375,-49.8046875
158.5703125,-20.01953125,-23.4375,-42.96875,-36.62109375
158.57421875,-15.13671875,-13.671875,-22.4609375,-22.94921875
158.578125,-29.296875,-11.71875,-10.25390625,-29.78515625
158.58203125,-39.0625,-12.20703125,-16.11328125,-41.9921875
158.5859375,-25.87890625,-19.04296875,-19.04296875,-41.015625
158.58984375,-35.64453125,-25.390625,-24.4140625,-50.29296875
158.59375,-61.03515625,-28.3203125,-32.71484375,-59.5703125
158.59765625,-55.17578125,-35.64453125,-41.015625,-57.6171875
158.6015625,-50.78125,-46.38671875,-43.9453125,-61.5234375
158.60546875,-68.359375,-49.8046875,-38.0859375,-77.1484375
158.609375,-75.68359375,-43.9453125,-28.80859375,-79.1015625
158.61328125,-62.01171875,-41.015625,-29.296875,-66.89453125
158.6171875,-57.12890625,-45.41015625,-42.48046875,-60.05859375
158.62109375,-62.98828125,-48.828125,-46.875,-62.01171875
158.625,-61.03515625,-48.828125,-36.1328125,-55.17578125
158.62890625,-61.5234375,-49.8046875,-37.109375,-54.6875
158.6328125,-64.453125,-54.19921875,-44.921875,-59.5703125
158.63671875,-61.03515625,-65.4296875,-47.8515625,-53.7109375
158.640625,-60.546875,-58.59375,-44.43359375,-54.6875
158.64453125,-62.98828125,-46.38671875,-39.0625,-60.05859375
158.6484375,-62.98828125,-54.19921875,-34.66796875,-48.33984375
158.65234375,-43.9453125,-50.78125,-29.78515625,-42.48046875
158.65625,-32.71484375,-40.0390625,-27.83203125,-34.66796875
158.66015625,-50.78125,-37.59765625,-35.64453125,-30.76171875
158.6640625,-50.29296875,-38.57421875,-42.96875,-34.1796875
158.66796875,-30.2734375,-39.55078125,-35.15625,-30.76171875
158.671875,-28.80859375,-40.52734375,-24.4140625,-29.78515625
158.67578125,-42.48046875,-32.2265625,-23.92578125,-32.71484375
158.6796875,-27.83203125,-20.99609375,-10.7421875,-25.87890625
158.68359375,0.0,-18.06640625,0.0,-23.92578125
158.6875,-21.97265625,-23.92578125,-16.11328125,-27.83203125
158.69140625,-39.55078125,-20.5078125,-16.11328125,-23.4375
158.6953125,-43.9453125,-21.97265625,-16.11328125,-28.3203125
158.69921875,-37.59765625,-27.83203125,-20.5078125,-21.97265625
158.703125,-17.08984375,-20.5078125,-13.18359375,-21.484375
158.70703125,-14.16015625,-23.92578125,-9.765625,-23.92578125
158.7109375,-14.6484375,-26.85546875,-12.6953125,-16.11328125
158.71484375,-22.94921875,-25.87890625,-12.20703125,-22.94921875
158.71875,-6.8359375,-31.25,-7.8125,-19.04296875
158.72265625,-3.41796875,-29.296875,-5.37109375,-15.625
158.7265625,-24.90234375,-19.53125,-9.27734375,-12.6953125
158.73046875,-26.3671875,-20.01953125,-20.5078125,-9.765625
158.734375,-28.80859375,-25.390625,-30.2734375,-21.484375
158.73828125,-33.69140625,-26.3671875,-24.4140625,-27.34375
158.7421875,-36.62109375,-27.83203125,-23.92578125,-19.53125
158.74609375,-38.57421875,-32.2265625,-28.80859375,-10.7421875
158.75,-25.87890625,-20.99609375,-20.5078125,-1.46484375
158.75390625,-13.671875,-12.6953125,-7.32421875,-7.32421875
158.7578125,-25.87890625,-22.4609375,-9.765625,-21.97265625
158.76171875,-32.2265625,-29.78515625,-21.97265625,-23.92578125
158.765625,-31.73828125,-25.390625,-18.5546875,-10.7421875
158.76953125,-21.484375,-19.53125,-8.30078125,-10.7421875
158.7734375,-36.1328125,-27.83203125,-6.34765625,-29.296875
158.77734375,-54.19921875,-29.78515625,-15.625,-26.85546875
158.78125,-35.15625,-35.15625,-25.390625,-16.6015625
158.78515625,-28.80859375,-33.203125,-18.06640625,-29.296875
158.7890625,-35.64453125,-29.78515625,-11.71875,-29.78515625
158.79296875,-43.45703125,-32.71484375,-16.11328125,-31.25
158.796875,-43.9453125,-38.57421875,-20.01953125,-37.59765625
158.80078125,-22.4609375,-40.0390625,-26.85546875,-44.43359375
158.8046875,-19.04296875,-38.57421875,-31.73828125,-49.8046875
158.80859375,-34.1796875,-32.71484375,-31.73828125,-45.8984375
158.8125,-39.55078125,-25.87890625,-33.203125,-32.2265625
158.81640625,-24.4140625,-27.83203125,-35.64453125,-23.4375
158.8203125,-25.390625,-38.0859375,-36.1328125,-31.73828125
158.82421875,-35.15625,-42.96875,-30.2734375,-36.62109375
158.828125,-53.7109375,-52.734375,-31.25,-45.8984375
158.83203125,-60.05859375,-55.6640625,-42.96875,-57.6171875
158.8359375,-41.015625,-56.15234375,-50.29296875,-61.5234375
158.83984375,-42.96875,-60.546875,-48.33984375,-63.4765625
158.84375,-51.26953125,-62.01171875,-43.9453125,-61.5234375
158.84765625,-40.0390625,-64.453125,-42.96875,-53.22265625
158.8515625,-27.34375,-53.7109375,-41.015625,-37.109375
158.85546875,-36.1328125,-51.7578125,-43.45703125,-33.69140625
158.859375,-42.48046875,-45.8984375,-44.921875,-35.15625
158.86328125,-48.828125,-41.9921875,-47.8515625,-33.69140625
158.8671875,-35.15625,-49.31640625,-40.52734375,-32.2265625
158.87109375,-12.20703125,-44.921875,-31.73828125,-28.3203125
158.875,-26.3671875,-38.57421875,-32.71484375,-24.90234375
158.87890625,-41.015625,-40.0390625,-32.71484375,-21.484375
158.8828125,-26.85546875,-41.015625,-32.71484375,-21.484375
158.88671875,-22.4609375,-39.55078125,-36.62109375,-32.2265625
158.890625,-32.2265625,-41.9921875,-42.48046875,-30.76171875
158.89453125,-31.73828125,-32.2265625,-33.69140625,-23.92578125
158.8984375,-31.73828125,-26.85546875,-27.83203125,-30.2734375
158.90234375,-28.3203125,-32.71484375,-35.64453125,-30.2734375
158.90625,-43.9453125,-42.96875,-59.08203125,-51.7578125
158.91015625,-72.265625,-45.41015625,-63.4765625,-66.89453125
158.9140625,-55.6640625,-47.8515625,-54.6875,-44.43359375
158.91796875,-22.4609375,-48.828125,-55.17578125,-37.109375
158.921875,-16.6015625,-41.50390625,-46.38671875,-40.0390625
158.92578125,-20.5078125,-35.64453125,-41.015625,-35.15625
158.9296875,-28.80859375,-39.0625,-40.0390625,-36.1328125
158.93359375,-27.83203125,-41.015625,-43.45703125,-28.3203125
158.9375,-24.4140625,-39.55078125,-46.38671875,-27.34375
158.94140625,-34.1796875,-32.2265625,-48.828125,-38.0859375
158.9453125,-46.38671875,-33.69140625,-48.33984375,-42.48046875
158.94921875,-42.96875,-43.9453125,-46.875,-49.8046875
158.953125,-44.921875,-56.640625,-56.15234375,-48.828125
158.95703125,-49.31640625,-59.5703125,-60.546875,-47.36328125
158.9609375,-50.29296875,-51.7578125,-58.59375,-41.50390625
158.96484375,-59.08203125,-53.7109375,-59.08203125,-31.73828125
158.96875,-44.43359375,-54.19921875,-49.8046875,-22.94921875
158.97265625,-26.85546875,-44.43359375,-39.0625,-22.94921875
158.9765625,-37.109375,-41.015625,-38.0859375,-35.64453125
158.98046875,-38.0859375,-41.9921875,-38.0859375,-30.2734375
158.984375,-24.4140625,-39.55078125,-31.25,-17.578125
158.98828125,-41.015625,-35.64453125,-33.69140625,-34.1796875
158.9921875,-55.6640625,-39.0625,-39.55078125,-46.38671875
158.99609375,-49.8046875,-40.0390625,-37.109375,-41.9921875
159.0,-38.57421875,-37.109375,-35.64453125,-41.9921875
159.00390625,-27.83203125,-41.50390625,-25.87890625,-31.73828125
159.0078125,-34.66796875,-38.57421875,-18.06640625,-29.296875
159.01171875,-52.734375,-47.8515625,-29.296875,-44.921875
159.015625,-43.45703125,-48.828125,-31.25,-30.76171875
159.01953125,-16.6015625,-30.76171875,-21.97265625,-12.20703125
159.0234375,-29.78515625,-37.59765625,-23.4375,-30.76171875
159.02734375,-61.5234375,-51.26953125,-32.71484375,-52.734375
159.03125,-57.6171875,-45.41015625,-27.34375,-46.875
159.03515625,-39.55078125,-36.1328125,-20.5078125,-47.8515625
159.0390625,-31.73828125,-39.55078125,-25.390625,-44.921875
159.04296875,-44.921875,-43.45703125,-29.296875,-40.0390625
159.046875,-58.10546875,-41.50390625,-37.109375,-51.26953125
159.05078125,-47.36328125,-46.875,-38.57421875,-43.9453125
159.0546875,-45.8984375,-49.31640625,-40.0390625,-41.9921875
159.05859375,-62.01171875,-52.734375,-44.43359375,-61.5234375
159.0625,-60.05859375,-53.22265625,-37.109375,-51.7578125
159.06640625,-42.96875,-42.96875,-31.25,-33.203125
159.0703125,-34.66796875,-39.55078125,-34.66796875,-37.59765625
159.07421875,-36.1328125,-38.57421875,-36.62109375,-42.96875
159.078125,-40.0390625,-35.15625,-30.2734375,-30.2734375
159.08203125,-37.109375,-33.203125,-36.1328125,-29.296875
159.0859375,-22.94921875,-34.1796875,-38.57421875,-33.203125
159.08984375,-33.203125,-37.59765625,-34.66796875,-30.76171875
159.09375,-41.9921875,-37.59765625,-39.55078125,-32.71484375
159.09765625,-35.64453125,-35.15625,-31.73828125,-29.296875
159.1015625,-15.13671875,-30.2734375,-25.87890625,-12.20703125
159.10546875,-17.578125,-29.78515625,-29.296875,-22.4609375
159.109375,-33.69140625,-34.1796875,-30.2734375,-39.0625
159.11328125,-26.3671875,-31.25,-29.296875,-35.15625
159.1171875,-2.44140625,-21.484375,-18.5546875,-12.6953125
159.12109375,-0.48828125,-16.6015625,-12.20703125,0.9765625
159.125,-16.6015625,-19.04296875,-19.04296875,-1.953125
159.12890625,-23.4375,-25.87890625,-24.4140625,-10.25390625
159.1328125,-22.4609375,-26.3671875,-39.0625,-12.20703125
159.13671875,-19.53125,-29.296875,-40.0390625,-11.71875
159.140625,-26.85546875,-33.69140625,-25.390625,-14.16015625
159.14453125,-38.57421875,-36.1328125,-28.3203125,-29.78515625
159.1484375,-45.41015625,-41.50390625,-41.50390625,-48.828125
159.15234375,-29.78515625,-41.015625,-43.9453125,-49.8046875
159.15625,-21.97265625,-35.64453125,-35.64453125,-33.203125
159.16015625,-31.73828125,-28.3203125,-29.78515625,-26.85546875
159.1640625,-26.85546875,-33.203125,-29.78515625,-27.83203125
159.16796875,-13.671875,-35.15625,-25.87890625,-6.8359375
159.171875,-10.7421875,-30.76171875,-34.1796875,-4.8828125
159.17578125,-26.3671875,-29.78515625,-39.0625,-20.01953125
159.1796875,-31.25,-24.4140625,-25.87890625,-14.6484375
159.18359375,-18.5546875,-20.99609375,-17.08984375,-5.37109375
159.1875,-6.8359375,-23.4375,-8.30078125,-1.953125
159.19140625,-18.5546875,-25.87890625,-12.20703125,-13.671875
159.1953125,-27.34375,-21.97265625,-12.20703125,-16.6015625
159.19921875,-18.5546875,-21.484375,-5.859375,-13.671875
159.203125,-2.44140625,-24.4140625,-15.625,-29.296875
159.20703125,6.34765625,-14.16015625,-22.4609375,-24.4140625
159.2109375,-4.8828125,-11.23046875,-10.7421875,-8.30078125
159.21484375,-6.34765625,-17.578125,-6.34765625,-2.9296875
159.21875,3.41796875,-18.06640625,-22.4609375,-6.34765625
159.22265625,-4.8828125,-19.53125,-28.3203125,-23.4375
159.2265625,-20.5078125,-17.578125,-18.5546875,-30.76171875
159.23046875,-17.578125,-19.53125,-14.6484375,-27.83203125
159.234375,3.41796875,-18.06640625,-19.04296875,-21.484375
159.23828125,16.11328125,-12.20703125,-21.97265625,-13.18359375
159.2421875,-18.5546875,-21.97265625,-32.71484375,-22.4609375
159.24609375,-40.0390625,-25.87890625,-38.0859375,-27.34375
159.25,-19.04296875,-37.109375,-30.2734375,-26.3671875
159.25390625,-19.53125,-40.52734375,-32.2265625,-38.0859375
159.2578125,-39.55078125,-34.1796875,-40.52734375,-39.55078125
159.26171875,-50.78125,-39.55078125,-48.828125,-42.48046875
159.265625,-51.7578125,-49.8046875,-54.19921875,-50.78125
159.26953125,-43.9453125,-44.43359375,-45.8984375,-49.8046875
159.2734375,-40.0390625,-39.55078125,-41.9921875,-47.36328125
159.27734375,-43.45703125,-47.36328125,-43.45703125,-52.24609375
159.28125,-38.0859375,-45.41015625,-32.71484375,-48.828125
159.28515625,-25.390625,-43.9453125,-29.78515625,-32.71484375
159.2890625,-28.3203125,-42.96875,-36.62109375,-33.203125
159.29296875,-41.015625,-38.57421875,-39.55078125,-36.1328125
159.296875,-50.78125,-35.15625,-40.0390625,-39.0625
159.30078125,-36.1328125,-39.0625,-38.57421875,-43.9453125
159.3046875,-27.83203125,-47.36328125,-37.59765625,-52.734375
159.30859375,-45.8984375,-47.8515625,-41.50390625,-48.33984375
159.3125,-54.6875,-42.48046875,-53.7109375,-44.43359375
159.31640625,-43.45703125,-41.015625,-56.15234375,-42.96875
159.3203125,-40.0390625,-44.921875,-44.43359375,-34.66796875
159.32421875,-29.78515625,-38.0859375,-35.15625,-23.4375
159.328125,-29.296875,-36.1328125,-31.73828125,-22.4609375
159.33203125,-30.76171875,-39.55078125,-35.15625,-25.87890625
159.3359375,-20.01953125,-36.62109375,-42.48046875,-30.76171875
159.33984375,-40.52734375,-37.59765625,-35.64453125,-42.96875
159.34375,-58.10546875,-44.43359375,-39.0625,-45.8984375
159.34765625,-42.48046875,-35.64453125,-49.8046875,-32.71484375
159.3515625,-17.08984375,-30.2734375,-33.69140625,-22.4609375
159.35546875,-20.99609375,-35.15625,-31.73828125,-29.296875
159.359375,-41.50390625,-27.34375,-37.59765625,-37.59765625
159.36328125,-39.55078125,-30.2734375,-37.59765625,-30.76171875
159.3671875,-23.4375,-36.62109375,-40.52734375,-21.97265625
159.37109375,-16.11328125,-28.3203125,-31.73828125,-20.5078125
159.375,-21.97265625,-29.296875,-27.34375,-32.71484375
159.37890625,-35.15625,-34.66796875,-28.3203125,-39.0625
159.3828125,-30.76171875,-35.64453125,-24.4140625,-27.34375
159.38671875,-13.18359375,-30.2734375,-22.4609375,-20.01953125
159.390625,-19.53125,-31.25,-21.484375,-28.80859375
159.39453125,-38.0859375,-31.73828125,-27.34375,-32.2265625
159.3984375,-39.55078125,-30.76171875,-32.71484375,-30.2734375
159.40234375,-33.203125,-34.1796875,-24.90234375,-23.4375
159.40625,-26.85546875,-37.59765625,-17.08984375,-17.08984375
159.41015625,-29.296875,-30.76171875,-17.08984375,-13.671875
159.4140625,-26.85546875,-25.87890625,-13.18359375,-16.6015625
159.41796875,-25.390625,-24.4140625,-23.92578125,-30.76171875
159.421875,-29.78515625,-19.53125,-28.3203125,-36.1328125
159.42578125,-35.64453125,-21.97265625,-19.53125,-34.1796875
159.4296875,-53.22265625,-30.2734375,-28.80859375,-40.52734375
159.43359375,-43.45703125,-27.83203125,-29.78515625,-43.45703125
159.4375,-35.64453125,-29.296875,-23.92578125,-53.22265625
159.44140625,-46.38671875,-29.296875,-26.85546875,-60.546875
159.4453125,-37.109375,-24.90234375,-32.71484375,-43.9453125
159.44921875,-34.66796875,-41.50390625,-49.31640625,-38.0859375
159.453125,-24.4140625,-45.8984375,-49.8046875,-38.0859375
159.45703125,-36.62109375,-33.203125,-32.71484375,-45.41015625
159.4609375,-52.24609375,-34.1796875,-28.3203125,-46.38671875
159.46484375,-43.45703125,-50.29296875,-38.0859375,-51.26953125
159.46875,-39.0625,-56.640625,-42.48046875,-61.03515625
159.47265625,-39.55078125,-48.33984375,-36.62109375,-53.7109375
159.4765625,-42.48046875,-44.921875,-31.73828125,-45.41015625
159.48046875,-41.9921875,-44.43359375,-31.25,-48.33984375
159.484375,-35.15625,-42.48046875,-41.9921875,-40.52734375
159.48828125,-22.4609375,-43.9453125,-41.9921875,-36.1328125
159.4921875,-37.109375,-40.0390625,-35.64453125,-39.0625
159.49609375,-51.26953125,-39.55078125,-36.62109375,-36.1328125
159.5,-42.48046875,-39.0625,-38.57421875,-36.1328125
159.50390625,-37.59765625,-41.9921875,-44.43359375,-45.41015625
159.5078125,-52.24609375,-46.875,-48.33984375,-48.828125
159.51171875,-61.5234375,-51.7578125,-45.8984375,-43.9453125
159.515625,-52.734375,-53.7109375,-45.8984375,-49.31640625
159.51953125,-36.62109375,-50.78125,-44.921875,-63.96484375
159.5234375,-39.55078125,-47.36328125,-41.015625,-56.640625
159.52734375,-63.96484375,-45.41015625,-41.50390625,-57.6171875
159.53125,-58.59375,-44.43359375,-37.59765625,-53.7109375
159.53515625,-33.69140625,-46.38671875,-36.62109375,-42.48046875
159.5390625,-47.36328125,-55.6640625,-56.15234375,-59.5703125
159.54296875,-68.84765625,-56.15234375,-65.91796875,-74.70703125
159.546875,-62.01171875,-52.734375,-58.59375,-66.89453125
159.55078125,-50.78125,-55.17578125,-58.59375,-51.26953125
159.5546875,-48.828125,-62.01171875,-63.96484375,-49.8046875
159.55859375,-65.4296875,-65.91796875,-62.5,-57.6171875
159.5625,-77.1484375,-64.453125,-77.63671875,-67.87109375
159.56640625,-60.05859375,-65.91796875,-80.56640625,-69.82421875
159.5703125,-45.41015625,-65.4296875,-60.05859375,-66.89453125
159.57421875,-58.10546875,-62.01171875,-52.24609375,-74.21875
159.578125,-63.96484375,-53.22265625,-47.36328125,-69.82421875
159.58203125,-41.015625,-42.48046875,-30.76171875,-56.15234375
159.5859375,-28.80859375,-43.45703125,-26.3671875,-54.6875
159.58984375,-45.41015625,-43.9453125,-33.69140625,-51.7578125
159.59375,-58.10546875,-39.0625,-32.71484375,-54.6875
159.59765625,-53.22265625,-42.96875,-29.78515625,-52.24609375
159.6015625,-50.29296875,-54.6875,-36.1328125,-39.0625
159.60546875,-39.55078125,-51.26953125,-33.203125,-34.66796875
159.609375,-46.38671875,-39.0625,-32.71484375,-41.50390625
159.61328125,-44.43359375,-34.66796875,-43.9453125,-34.66796875
159.6171875,-22.94921875,-37.59765625,-36.1328125,-29.296875
159.62109375,-15.13671875,-32.2265625,-20.01953125,-36.1328125
159.625,-28.3203125,-26.3671875,-17.08984375,-33.69140625
159.62890625,-44.921875,-27.83203125,-22.94921875,-37.59765625
159.6328125,-28.3203125,-34.1796875,-28.3203125,-32.71484375
159.63671875,-23.92578125,-38.0859375,-25.87890625,-29.296875
159.640625,-27.34375,-27.34375,-22.94921875,-39.0625
159.64453125,-32.71484375,-25.390625,-25.87890625,-44.921875
159.6484375,-46.875,-31.73828125,-27.34375,-29.296875
159.65234375,-32.2265625,-34.66796875,-23.92578125,-19.04296875
159.65625,-27.34375,-34.66796875,-27.83203125,-23.4375
159.66015625,-40.52734375,-30.76171875,-41.015625,-20.01953125
159.6640625,-32.71484375,-29.78515625,-34.66796875,-7.32421875
159.66796875,-21.97265625,-34.66796875,-33.203125,-12.6953125
159.671875,-32.71484375,-37.109375,-44.43359375,-26.3671875
159.67578125,-41.9921875,-38.57421875,-34.66796875,-37.109375
159.6796875,-52.734375,-43.45703125,-29.296875,-52.24609375
159.68359375,-33.203125,-40.0390625,-31.25,-36.62109375
159.6875,-18.5546875,-32.2265625,-33.203125,-17.578125
159.69140625,-38.0859375,-32.71484375,-31.73828125,-28.3203125
159.6953125,-43.9453125,-33.69140625,-26.3671875,-28.3203125
159.69921875,-45.41015625,-35.64453125,-29.78515625,-27.34375
159.703125,-43.9453125,-41.9921875,-30.2734375,-39.0625
159.70703125,-47.8515625,-52.734375,-34.1796875,-46.38671875
159.7109375,-56.15234375,-63.96484375,-43.45703125,-42.96875
159.71484375,-46.38671875,-63.96484375,-50.78125,-40.0390625
159.71875,-38.57421875,-61.5234375,-52.734375,-41.50390625
159.72265625,-41.9921875,-61.03515625,-49.8046875,-58.59375
159.7265625,-59.5703125,-63.96484375,-60.05859375,-77.63671875
159.73046875,-61.5234375,-59.5703125,-65.4296875,-62.01171875
159.734375,-42.48046875,-51.26953125,-48.828125,-39.55078125
159.73828125,-41.015625,-47.8515625,-39.55078125,-45.41015625
159.7421875,-45.41015625,-41.50390625,-44.921875,-43.45703125
159.74609375,-47.36328125,-39.0625,-47.36328125,-39.0625
159.75,-48.33984375,-44.43359375,-37.59765625,-46.875
159.75390625,-38.57421875,-45.8984375,-27.83203125,-51.26953125
159.7578125,-41.9921875,-46.38671875,-34.1796875,-54.19921875
159.76171875,-42.48046875,-41.50390625,-41.50390625,-43.9453125
159.765625,-36.62109375,-38.57421875,-44.43359375,-31.25
159.76953125,-16.11328125,-39.0625,-43.45703125,-26.3671875
159.7734375,-20.5078125,-39.55078125,-37.59765625,-37.59765625
159.77734375,-42.96875,-36.62109375,-21.97265625,-37.109375
159.78125,-64.453125,-41.9921875,-32.71484375,-41.9921875
159.78515625,-67.3828125,-48.33984375,-47.36328125,-45.8984375
159.7890625,-49.31640625,-56.640625,-46.38671875,-40.52734375
159.79296875,-59.5703125,-58.59375,-51.7578125,-49.31640625
159.796875,-66.89453125,-48.33984375,-49.8046875,-50.78125
159.80078125,-44.921875,-45.41015625,-43.9453125,-44.43359375
159.8046875,-35.15625,-44.921875,-44.43359375,-40.0390625
159.80859375,-53.22265625,-46.38671875,-41.015625,-45.8984375
159.8125,-54.6875,-52.24609375,-43.45703125,-51.7578125
159.81640625,-49.31640625,-63.4765625,-59.5703125,-54.6875
159.8203125,-58.10546875,-75.1953125,-69.3359375,-62.01171875
159.82421875,-64.453125,-68.84765625,-59.08203125,-62.01171875
159.828125,-69.82421875,-63.4765625,-55.6640625,-57.12890625
159.83203125,-63.96484375,-57.12890625,-49.8046875,-54.19921875
159.8359375,-46.38671875,-53.22265625,-53.22265625,-56.15234375
159.83984375,-52.24609375,-60.05859375,-62.01171875,-67.3828125
159.84375,-73.2421875,-62.98828125,-70.80078125,-74.70703125
159.84765625,-68.359375,-64.94140625,-74.70703125,-63.96484375
159.8515625,-46.38671875,-62.98828125,-63.4765625,-48.828125
159.85546875,-40.52734375,-62.01171875,-53.22265625,-41.9921875
159.859375,-59.08203125,-69.82421875,-60.05859375,-54.19921875
159.86328125,-76.66015625,-76.171875,-68.359375,-63.96484375
159.8671875,-77.1484375,-91.30859375,-80.078125,-69.82421875
159.87109375,-79.1015625,-96.6796875,-79.58984375,-74.21875
159.875,-64.94140625,-76.66015625,-67.3828125,-58.10546875
159.87890625,-41.9921875,-56.640625,-52.734375,-40.52734375
159.8828125,-38.57421875,-51.26953125,-41.50390625,-42.96875
159.88671875,-41.015625,-47.8515625,-38.0859375,-46.38671875
159.890625,-49.8046875,-45.8984375,-42.96875,-40.0390625
159.89453125,-56.640625,-36.62109375,-45.8984375,-38.57421875
159.8984375,-47.8515625,-41.50390625,-37.59765625,-43.45703125
159.90234375,-36.1328125,-46.38671875,-39.0625,-44.43359375
159.90625,-37.59765625,-39.55078125,-36.1328125,-43.9453125
159.91015625,-39.55078125,-40.0390625,-35.15625,-52.734375
159.9140625,-39.0625,-44.43359375,-52.24609375,-49.31640625
159.91796875,-31.25,-43.45703125,-56.15234375,-47.8515625
159.921875,-26.85546875,-40.52734375,-53.7109375,-54.19921875
159.92578125,-32.2265625,-37.59765625,-45.41015625,-41.9921875
159.9296875,-47.36328125,-45.8984375,-48.33984375,-52.24609375
159.93359375,-35.15625,-47.8515625,-56.640625,-49.31640625
159.9375,-24.4140625,-45.41015625,-55.6640625,-37.59765625
159.94140625,-48.33984375,-56.15234375,-51.7578125,-48.828125
159.9453125,-62.5,-57.6171875,-53.22265625,-53.22265625
159.94921875,-48.33984375,-42.96875,-49.8046875,-41.9921875
159.953125,-30.2734375,-45.8984375,-46.875,-33.69140625
159.95703125,-41.50390625,-47.8515625,-53.7109375,-39.55078125
159.9609375,-57.12890625,-48.828125,-58.10546875,-49.8046875
159.96484375,-41.50390625,-43.9453125,-51.26953125,-43.45703125
159.96875,-28.80859375,-43.45703125,-50.78125,-48.33984375
159.97265625,-34.66796875,-41.50390625,-57.12890625,-61.03515625
159.9765625,-25.390625,-38.0859375,-56.15234375,-43.45703125
159.98046875,-35.15625,-39.55078125,-63.96484375,-30.2734375
159.984375,-33.203125,-36.1328125,-60.546875,-16.11328125
159.98828125,-25.390625,-44.43359375,-51.7578125,-19.04296875
159.9921875,-44.43359375,-49.31640625,-52.24609375,-28.3203125
159.99609375,-65.4296875,-49.31640625,-54.6875,-35.64453125
160.0,-70.3125,-57.12890625,-57.12890625,-43.45703125
160.00390625,-51.26953125,-49.31640625,-57.6171875,-52.734375
160.0078125,-41.50390625,-44.43359375,-42.96875,-51.26953125
160.01171875,-67.87109375,-58.10546875,-52.24609375,-60.05859375
160.015625,-71.2890625,-59.5703125,-65.4296875,-72.265625
160.01953125,-43.9453125,-52.24609375,-59.5703125,-58.10546875
160.0234375,-41.015625,-49.31640625,-52.24609375,-53.22265625
160.02734375,-46.875,-42.48046875,-47.8515625,-63.96484375
160.03125,-52.24609375,-43.9453125,-49.31640625,-62.5
160.03515625,-58.10546875,-58.10546875,-52.734375,-54.19921875
160.0390625,-66.89453125,-58.59375,-60.546875,-56.640625
160.04296875,-73.73046875,-53.22265625,-59.5703125,-63.96484375
160.046875,-66.40625,-48.33984375,-50.78125,-49.8046875
160.05078125,-46.38671875,-43.9453125,-46.38671875,-36.62109375
160.0546875,-35.64453125,-44.921875,-42.48046875,-35.15625
160.05859375,-45.8984375,-39.55078125,-34.1796875,-32.71484375
160.0625,-57.12890625,-39.0625,-31.25,-37.109375
160.06640625,-50.78125,-44.43359375,-37.59765625,-39.55078125
160.0703125,-40.52734375,-48.828125,-48.828125,-46.875
160.07421875,-55.6640625,-51.7578125,-63.96484375,-70.3125
160.078125,-67.3828125,-53.22265625,-68.359375,-69.82421875
160.08203125,-59.08203125,-55.17578125,-67.3828125,-55.6640625
160.0859375,-36.1328125,-49.8046875,-61.5234375,-53.7109375
160.08984375,-39.55078125,-47.8515625,-55.17578125,-60.05859375
160.09375,-67.3828125,-58.59375,-60.546875,-64.94140625
160.09765625,-61.03515625,-49.31640625,-69.82421875,-61.5234375
160.1015625,-40.52734375,-38.0859375,-61.03515625,-57.12890625
160.10546875,-34.1796875,-38.0859375,-51.26953125,-49.31640625
160.109375,-44.43359375,-38.57421875,-42.48046875,-44.43359375
160.11328125,-44.921875,-34.66796875,-37.59765625,-36.1328125
160.1171875,-26.3671875,-36.62109375,-35.15625,-44.921875
160.12109375,-28.3203125,-36.62109375,-29.78515625,-51.26953125
160.125,-35.64453125,-35.15625,-28.3203125,-36.62109375
160.12890625,-53.22265625,-40.0390625,-32.71484375,-31.25
160.1328125,-49.8046875,-39.0625,-33.69140625,-26.3671875
160.13671875,-28.3203125,-34.1796875,-36.62109375,-21.97265625
160.140625,-54.6875,-42.96875,-41.015625,-35.15625
160.14453125,-77.1484375,-46.875,-35.64453125,-48.828125
160.1484375,-58.59375,-45.41015625,-32.2265625,-44.43359375
160.15234375,-51.26953125,-52.24609375,-43.9453125,-56.15234375
160.15625,-66.89453125,-52.24609375,-48.33984375,-71.77734375
160.16015625,-79.1015625,-50.29296875,-48.33984375,-70.3125
160.1640625,-74.21875,-54.6875,-40.52734375,-57.6171875
160.16796875,-53.7109375,-54.19921875,-39.55078125,-53.22265625
160.171875,-40.0390625,-44.921875,-44.43359375,-52.734375
160.17578125,-38.0859375,-43.9453125,-40.52734375,-42.96875
160.1796875,-41.50390625,-48.33984375,-30.76171875,-40.0390625
160.18359375,-38.57421875,-48.33984375,-32.2265625,-52.24609375
160.1875,-25.87890625,-44.43359375,-33.203125,-51.7578125
160.19140625,-18.5546875,-32.71484375,-19.53125,-40.52734375
160.1953125,-34.1796875,-34.1796875,-23.92578125,-39.55078125
160.19921875,-33.69140625,-34.66796875,-29.296875,-35.64453125
160.203125,-32.71484375,-26.3671875,-21.484375,-51.7578125
160.20703125,-46.875,-26.85546875,-20.01953125,-55.17578125
160.2109375,-61.5234375,-36.1328125,-22.4609375,-51.26953125
160.21484375,-41.015625,-34.66796875,-15.13671875,-54.6875
160.21875,-11.23046875,-23.92578125,-3.41796875,-41.9921875
160.22265625,-19.04296875,-18.5546875,0.0,-35.64453125
160.2265625,-43.45703125,-21.97265625,-4.8828125,-39.55078125
160.23046875,-45.8984375,-25.87890625,-5.37109375,-36.1328125
160.234375,-27.83203125,-20.99609375,7.32421875,-34.66796875
160.23828125,-33.69140625,-10.7421875,-1.953125,-44.43359375
160.2421875,-58.59375,-17.578125,-11.23046875,-56.640625
160.24609375,-75.68359375,-22.94921875,-4.39453125,-64.94140625
160.25,-72.75390625,-16.6015625,-0.48828125,-61.03515625
160.25390625,-74.21875,-22.4609375,5.37109375,-62.01171875
160.2578125,-111.81640625,-31.73828125,-4.39453125,-90.8203125
160.26171875,-132.32421875,-31.25,-17.578125,-105.95703125
160.265625,-128.41796875,-24.90234375,-12.6953125,-103.02734375
160.26953125,-132.8125,-26.3671875,-1.46484375,-116.2109375
160.2734375,-143.5546875,-24.90234375,5.37109375,-132.32421875
160.27734375,-146.97265625,-16.6015625,14.16015625,-138.671875
160.28125,-154.296875,-9.27734375,18.5546875,-143.06640625
160.28515625,-153.3203125,-4.39453125,11.23046875,-145.99609375
160.2890625,-147.4609375,-4.8828125,6.34765625,-156.73828125
160.29296875,-166.9921875,-7.8125,-4.39453125,-166.015625
160.296875,-183.10546875,-6.34765625,-20.5078125,-159.66796875
160.30078125,-159.66796875,2.44140625,-10.25390625,-156.25
160.3046875,-149.4140625,0.9765625,2.9296875,-167.48046875
160.30859375,-161.62109375,-0.48828125,7.32421875,-180.17578125
160.3125,-163.0859375,2.44140625,7.32421875,-177.24609375
160.31640625,-146.97265625,7.32421875,6.34765625,-163.0859375
160.3203125,-135.7421875,14.16015625,14.16015625,-163.0859375
160.32421875,-158.69140625,0.48828125,10.7421875,-180.6640625
160.328125,-177.734375,-16.11328125,-0.9765625,-184.5703125
160.33203125,-162.109375,-7.8125,0.9765625,-175.78125
160.3359375,-151.3671875,-4.39453125,-0.48828125,-166.015625
160.33984375,-150.87890625,-11.23046875,-4.8828125,-146.484375
160.34375,-140.625,-17.578125,-10.7421875,-133.30078125
160.34765625,-131.8359375,-20.99609375,-17.08984375,-117.1875
160.3515625,-108.3984375,-13.671875,-11.23046875,-99.609375
160.35546875,-90.8203125,-11.71875,-12.20703125,-94.7265625
160.359375,-91.30859375,-15.13671875,-14.16015625,-78.61328125
160.36328125,-86.9140625,-12.20703125,-10.25390625,-62.98828125
160.3671875,-71.77734375,-15.625,-16.11328125,-67.87109375
160.37109375,-70.80078125,-27.34375,-28.80859375,-73.73046875
160.375,-62.5,-25.390625,-29.78515625,-54.19921875
160.37890625,-22.4609375,-1.953125,-16.6015625,-15.13671875
160.3828125,3.90625,7.8125,-3.90625,0.9765625
160.38671875,13.671875,3.90625,-3.41796875,7.32421875
160.390625,5.37109375,-4.8828125,-13.18359375,11.71875
160.39453125,-4.39453125,-2.44140625,-22.94921875,4.8828125
160.3984375,-2.9296875,-0.48828125,-21.97265625,-6.34765625
160.40234375,0.48828125,-8.30078125,-40.0390625,-19.53125
160.40625,12.20703125,-10.7421875,-47.36328125,-0.48828125
160.41015625,13.671875,-8.30078125,-33.203125,16.11328125
160.4140625,6.34765625,-7.32421875,-39.0625,12.6953125
160.41796875,27.34375,-6.34765625,-42.96875,27.34375
160.421875,35.15625,-13.671875,-50.78125,29.78515625
160.42578125,22.94921875,-20.01953125,-50.78125,29.296875
160.4296875,24.4140625,-25.390625,-46.875,31.25
160.43359375,24.4140625,-28.3203125,-50.78125,34.66796875
160.4375,20.99609375,-22.4609375,-48.33984375,40.0390625
160.44140625,14.6484375,-18.06640625,-46.875,39.55078125
160.4453125,18.06640625,-21.97265625,-43.9453125,52.734375
160.44921875,42.96875,-17.578125,-34.66796875,72.75390625
160.453125,51.26953125,-22.94921875,-47.8515625,57.12890625
160.45703125,37.109375,-30.2734375,-59.08203125,32.2265625
160.4609375,24.90234375,-30.76171875,-47.36328125,27.83203125
160.46484375,23.92578125,-40.0390625,-56.15234375,35.64453125
160.46875,41.9921875,-43.45703125,-72.75390625,34.1796875
160.47265625,45.8984375,-37.59765625,-69.82421875,35.15625
160.4765625,39.0625,-31.25,-62.01171875,43.9453125
160.48046875,50.29296875,-20.01953125,-48.33984375,59.5703125
160.484375,68.359375,-12.20703125,-20.99609375,76.66015625
160.48828125,72.75390625,-2.9296875,-10.7421875,63.96484375
160.4921875,60.546875,-13.18359375,-22.94921875,48.33984375
160.49609375,43.45703125,-26.85546875,-36.1328125,41.9921875
160.5,44.921875,-30.76171875,-38.0859375,49.31640625
160.50390625,52.24609375,-37.59765625,-35.15625,50.78125
160.5078125,42.48046875,-34.66796875,-44.921875,36.1328125
160.51171875,35.15625,-27.34375,-50.78125,39.0625
160.515625,51.26953125,-26.3671875,-32.71484375,50.78125
160.51953125,60.05859375,-18.5546875,-19.53125,50.29296875
160.5234375,47.8515625,-14.16015625,-21.484375,47.36328125
160.52734375,52.24609375,-3.41796875,-17.08984375,60.546875
160.53125,60.05859375,-3.90625,-13.18359375,71.2890625
160.53515625,60.05859375,-15.625,0.0,64.94140625
160.5390625,54.6875,-16.11328125,9.765625,61.03515625
160.54296875,46.38671875,-14.16015625,4.8828125,56.640625
160.546875,41.015625,-13.671875,2.44140625,60.05859375
160.55078125,41.9921875,-11.71875,-1.953125,47.8515625
160.5546875,36.62109375,-13.18359375,0.48828125,44.43359375
160.55859375,32.71484375,-8.7890625,3.41796875,52.734375
160.5625,21.97265625,-9.27734375,-1.46484375,57.6171875
160.56640625,20.5078125,0.48828125,6.8359375,68.84765625
160.5703125,40.0390625,6.34765625,13.671875,63.96484375
160.57421875,36.62109375,-6.8359375,9.765625,53.7109375
160.578125,26.85546875,-8.30078125,11.71875,46.875
160.58203125,37.109375,0.48828125,20.01953125,41.015625
160.5859375,51.26953125,4.39453125,19.04296875,43.45703125
160.58984375,37.109375,-2.9296875,2.9296875,23.4375
160.59375,1.953125,-16.6015625,-15.625,0.48828125
160.59765625,0.48828125,-19.04296875,-24.4140625,4.8828125
160.6015625,35.15625,-15.625,-21.97265625,24.4140625
160.60546875,34.1796875,-16.11328125,-20.01953125,17.578125
160.609375,23.4375,-10.7421875,-15.625,9.765625
160.61328125,20.99609375,-11.23046875,-12.6953125,-0.48828125
160.6171875,21.484375,-24.4140625,-21.97265625,-10.7421875
160.62109375,15.625,-33.203125,-27.83203125,-7.8125
160.625,1.46484375,-30.76171875,-27.83203125,-13.18359375
160.62890625,-17.08984375,-24.90234375,-31.25,-19.04296875
160.6328125,-14.6484375,-28.3203125,-33.69140625,-14.16015625
160.63671875,4.8828125,-30.2734375,-27.83203125,-4.8828125
160.640625,6.34765625,-28.3203125,-19.53125,-5.37109375
160.64453125,-4.8828125,-20.5078125,-10.25390625,-6.8359375
160.6484375,-6.8359375,-22.4609375,-11.23046875,-2.9296875
160.65234375,-0.48828125,-28.80859375,-19.04296875,-5.859375
160.65625,-16.11328125,-29.78515625,-20.01953125,-21.484375
160.66015625,-36.1328125,-36.62109375,-29.78515625,-28.80859375
160.6640625,-41.50390625,-51.26953125,-53.7109375,-32.71484375
160.66796875,-30.76171875,-44.43359375,-47.36328125,-14.16015625
160.671875,-14.6484375,-33.203125,-36.62109375,-6.8359375
160.67578125,-19.53125,-26.85546875,-22.4609375,-20.99609375
160.6796875,-20.5078125,-27.34375,-9.27734375,-2.9296875
160.68359375,-19.04296875,-31.25,-13.671875,3.41796875
160.6875,-10.7421875,-32.2265625,-11.23046875,-4.39453125
160.69140625,-3.90625,-27.83203125,-0.9765625,0.9765625
160.6953125,1.46484375,-18.06640625,-0.9765625,5.859375
160.69921875,3.90625,-21.484375,-8.7890625,13.671875
160.703125,12.20703125,-26.3671875,-8.30078125,17.08984375
160.70703125,10.7421875,-16.11328125,-6.8359375,6.8359375
160.7109375,-6.8359375,-15.625,-13.671875,0.0
160.71484375,1.953125,-17.578125,-14.6484375,16.11328125
160.71875,14.16015625,-18.5546875,-3.90625,25.390625
160.72265625,0.0,-29.296875,-5.37109375,7.32421875
160.7265625,-21.484375,-18.06640625,-26.85546875,-1.46484375
160.73046875,-21.484375,-15.625,-35.64453125,-0.9765625
160.734375,3.41796875,-30.2734375,-27.83203125,-1.46484375
160.73828125,2.9296875,-31.73828125,-16.6015625,-7.8125
160.7421875,-21.484375,-38.0859375,-20.99609375,-27.34375
160.74609375,-28.3203125,-40.52734375,-35.64453125,-36.1328125
160.75,-24.4140625,-41.9921875,-46.875,-28.3203125
160.75390625,-21.97265625,-38.0859375,-40.0390625,-33.69140625
160.7578125,-42.48046875,-44.43359375,-43.9453125,-39.0625
160.76171875,-47.8515625,-47.8515625,-46.875,-26.3671875
160.765625,-45.41015625,-42.96875,-49.8046875,-25.87890625
160.76953125,-53.22265625,-46.875,-57.12890625,-45.41015625
160.7734375,-47.8515625,-55.17578125,-55.6640625,-50.78125
160.77734375,-45.41015625,-48.828125,-51.26953125,-46.875
160.78125,-30.2734375,-37.109375,-46.875,-34.66796875
160.78515625,-19.04296875,-35.15625,-43.9453125,-22.94921875
160.7890625,-23.4375,-33.69140625,-35.15625,-25.390625
160.79296875,-16.6015625,-24.4140625,-29.78515625,-22.94921875
160.796875,-12.6953125,-20.99609375,-29.296875,-14.6484375
160.80078125,-3.41796875,-22.4609375,-31.73828125,-15.13671875
160.8046875,-5.859375,-21.97265625,-34.1796875,-34.66796875
160.80859375,-29.296875,1.46484375,-27.34375,-37.59765625
160.8125,-40.0390625,-10.25390625,-28.80859375,-28.3203125
160.81640625,-31.25,-23.92578125,-29.78515625,-22.94921875
160.8203125,-29.296875,-29.78515625,-34.1796875,-23.4375
160.82421875,-39.0625,-47.36328125,-36.1328125,-26.3671875
160.828125,-48.828125,-47.8515625,-42.48046875,-36.1328125
160.83203125,-46.38671875,-39.0625,-48.828125,-38.57421875
160.8359375,-31.25,-43.45703125,-43.45703125,-35.15625
160.83984375,-25.87890625,-48.828125,-40.0390625,-24.4140625
160.84375,-23.4375,-34.1796875,-30.2734375,-7.8125
160.84765625,-13.671875,-23.92578125,-26.85546875,-6.8359375
160.8515625,-4.39453125,-39.0625,-33.203125,-16.6015625
160.85546875,-7.32421875,-39.55078125,-30.2734375,-20.5078125
160.859375,-29.78515625,-34.66796875,-28.3203125,-33.69140625
160.86328125,-40.52734375,-35.64453125,-30.76171875,-40.52734375
160.8671875,-19.04296875,-24.90234375,-32.71484375,-34.1796875
160.87109375,-13.18359375,-28.3203125,-31.25,-39.55078125
160.875,-24.90234375,-33.69140625,-38.0859375,-40.0390625
160.87890625,-23.4375,-26.3671875,-36.62109375,-37.59765625
160.8828125,-8.30078125,-22.4609375,-17.578125,-22.94921875
160.88671875,-0.48828125,-21.484375,-29.78515625,-20.5078125
160.890625,-20.99609375,-23.4375,-32.2265625,-31.25
160.89453125,-18.5546875,-19.53125,-22.94921875,-32.71484375
160.8984375,2.44140625,-12.20703125,-29.296875,-18.06640625
160.90234375,8.30078125,-14.6484375,-26.3671875,-7.32421875
160.90625,-2.44140625,-11.23046875,-14.6484375,-14.16015625
160.91015625,-9.765625,-7.32421875,-4.39453125,-15.625
160.9140625,-13.671875,-16.11328125,-2.9296875,-7.8125
160.91796875,-3.90625,-16.6015625,-11.23046875,-7.32421875
160.921875,4.8828125,-6.34765625,-5.859375,-8.7890625
160.92578125,-3.90625,3.90625,0.48828125,-5.859375
160.9296875,0.0,4.39453125,-1.953125,0.48828125
160.93359375,12.20703125,-2.44140625,-5.37109375,6.8359375
160.9375,-2.44140625,-16.6015625,-22.94921875,-5.37109375
160.94140625,-25.87890625,-25.87890625,-31.25,-16.6015625
160.9453125,-41.50390625,-31.73828125,-33.203125,-26.85546875
160.94921875,-38.57421875,-33.69140625,-29.78515625,-29.296875
160.953125,-26.85546875,-38.57421875,-24.90234375,-27.34375
160.95703125,-31.73828125,-47.36328125,-31.25,-31.73828125
160.9609375,-47.8515625,-52.734375,-37.59765625,-37.59765625
160.96484375,-51.7578125,-53.7109375,-26.85546875,-39.55078125
160.96875,-36.62109375,-52.24609375,-29.296875,-33.69140625
160.97265625,-39.55078125,-52.734375,-39.0625,-28.80859375
160.9765625,-61.03515625,-52.734375,-36.62109375,-40.52734375
160.98046875,-57.6171875,-46.38671875,-33.69140625,-40.52734375
160.984375,-25.390625,-40.52734375,-31.73828125,-25.390625
160.98828125,-2.44140625,-36.1328125,-20.5078125,-13.671875
160.9921875,-27.83203125,-34.66796875,-6.34765625,-34.1796875
160.99609375,-54.6875,-36.62109375,-6.8359375,-44.921875
161.0,-46.875,-33.203125,-3.41796875,-32.71484375
161.00390625,-29.296875,-32.2265625,4.39453125,-22.94921875
161.0078125,-48.828125,-40.52734375,3.41796875,-32.2265625
161.01171875,-83.0078125,-43.45703125,5.37109375,-56.15234375
161.015625,-70.3125,-41.50390625,8.7890625,-51.7578125
161.01953125,-52.734375,-39.0625,21.484375,-42.96875
161.0234375,-79.1015625,-42.48046875,19.04296875,-63.4765625
161.02734375,-87.40234375,-51.26953125,12.6953125,-61.03515625
161.03125,-84.47265625,-61.5234375,10.25390625,-63.4765625
161.03515625,-84.9609375,-67.3828125,2.44140625,-77.1484375
161.0390625,-88.8671875,-66.89453125,8.7890625,-74.21875
161.04296875,-96.19140625,-60.546875,14.6484375,-70.3125
161.046875,-104.98046875,-60.546875,15.13671875,-62.98828125
161.05078125,-107.91015625,-62.98828125,11.23046875,-71.2890625
161.0546875,-88.8671875,-66.89453125,11.71875,-72.75390625
161.05859375,-96.6796875,-67.87109375,22.4609375,-69.3359375
161.0625,-98.14453125,-62.98828125,26.85546875,-69.82421875
161.06640625,-84.9609375,-62.01171875,24.4140625,-65.91796875
161.0703125,-87.890625,-65.4296875,27.34375,-68.84765625
161.07421875,-101.5625,-70.3125,16.6015625,-65.91796875
161.078125,-107.91015625,-71.2890625,10.7421875,-63.96484375
161.08203125,-101.07421875,-72.75390625,7.32421875,-67.87109375
161.0859375,-88.8671875,-83.984375,-6.8359375,-70.80078125
161.08984375,-77.1484375,-85.44921875,-14.16015625,-57.12890625
161.09375,-84.47265625,-82.03125,-14.6484375,-52.734375
161.09765625,-89.84375,-76.171875,-17.578125,-54.6875
161.1015625,-58.10546875,-62.01171875,-15.625,-33.69140625
161.10546875,-41.50390625,-51.26953125,-7.32421875,-22.94921875
161.109375,-55.6640625,-52.24609375,-6.34765625,-42.96875
161.11328125,-55.6640625,-51.26953125,-9.27734375,-44.43359375
161.1171875,-54.6875,-49.8046875,-23.92578125,-34.1796875
161.12109375,-51.26953125,-59.5703125,-40.52734375,-30.76171875
161.125,-57.12890625,-65.91796875,-54.19921875,-34.66796875
161.12890625,-62.01171875,-56.15234375,-38.0859375,-39.55078125
161.1328125,-44.43359375,-57.6171875,-28.80859375,-35.64453125
161.13671875,-24.90234375,-59.5703125,-38.0859375,-30.2734375
161.140625,-18.5546875,-41.9921875,-33.69140625,-27.34375
161.14453125,-17.08984375,-25.390625,-18.5546875,-7.32421875
161.1484375,2.9296875,-17.08984375,1.46484375,11.23046875
161.15234375,19.53125,-13.671875,-3.41796875,23.92578125
161.15625,22.4609375,-11.71875,3.41796875,34.66796875
161.16015625,22.94921875,-0.9765625,21.97265625,26.3671875
161.1640625,11.71875,-0.48828125,11.23046875,14.6484375
161.16796875,17.578125,-5.37109375,2.9296875,16.6015625
161.171875,20.99609375,-10.25390625,-8.30078125,12.6953125
161.17578125,9.765625,-8.30078125,-18.5546875,26.85546875
161.1796875,0.0,-13.671875,-24.90234375,30.76171875
161.18359375,11.71875,-17.08984375,-18.06640625,23.92578125
161.1875,21.484375,-16.6015625,-11.71875,19.04296875
161.19140625,0.48828125,-25.87890625,-21.97265625,-0.9765625
161.1953125,-23.4375,-36.1328125,-42.48046875,-15.13671875
161.19921875,-32.2265625,-44.921875,-44.921875,-25.390625
161.203125,-3.90625,-38.0859375,-27.83203125,-18.5546875
161.20703125,-9.765625,-31.25,-39.0625,-8.7890625
161.2109375,-37.109375,-42.96875,-63.96484375,-16.6015625
161.21484375,-31.25,-49.31640625,-60.05859375,-20.5078125
161.21875,-21.97265625,-41.9921875,-40.52734375,-17.578125
161.22265625,-18.5546875,-30.2734375,-21.484375,-16.11328125
161.2265625,-20.01953125,-20.5078125,-9.765625,-2.9296875
161.23046875,-18.5546875,-16.6015625,-22.4609375,6.34765625
161.234375,2.44140625,-15.625,-43.9453125,5.37109375
161.23828125,15.625,-11.71875,-19.04296875,15.625
161.2421875,0.9765625,-14.6484375,0.0,4.8828125
161.24609375,-7.8125,-15.13671875,-17.08984375,-6.34765625
161.25,-24.90234375,-24.90234375,-41.015625,-24.4140625
161.25390625,-20.01953125,-25.390625,-51.7578125,-22.4609375
161.2578125,-11.23046875,-6.8359375,-31.73828125,-6.8359375
161.26171875,-10.7421875,-4.39453125,-11.71875,3.41796875
161.265625,5.859375,-4.8828125,-11.71875,10.25390625
161.26953125,19.53125,-1.953125,-12.20703125,16.6015625
161.2734375,12.6953125,-9.765625,-14.16015625,18.5546875
161.27734375,-10.7421875,-7.8125,-13.18359375,6.8359375
161.28125,4.8828125,-2.44140625,-0.48828125,12.6953125
161.28515625,24.4140625,-5.37109375,7.8125,24.90234375
161.2890625,6.8359375,-5.859375,-3.90625,16.6015625
161.29296875,-9.27734375,-10.25390625,-12.6953125,6.34765625
161.296875,-5.37109375,-13.18359375,-10.25390625,4.8828125
161.30078125,0.48828125,-14.16015625,-18.06640625,-5.859375
161.3046875,1.953125,-17.08984375,-23.4375,-0.9765625
161.30859375,-4.39453125,-19.04296875,-16.6015625,13.18359375
161.3125,-14.16015625,-11.71875,-15.13671875,4.8828125
161.31640625,-0.48828125,-3.90625,-8.30078125,6.8359375
161.3203125,15.625,-6.34765625,0.0,8.7890625
161.32421875,-5.859375,-10.25390625,-9.27734375,-6.8359375
161.328125,-20.01953125,-3.41796875,-6.34765625,-6.8359375
161.33203125,-2.44140625,-1.46484375,-0.48828125,5.859375
161.3359375,5.37109375,-14.6484375,-9.27734375,5.859375
161.33984375,-10.7421875,-21.484375,-10.25390625,-4.39453125
161.34375,-19.53125,-25.87890625,-3.90625,-10.25390625
161.34765625,-30.2734375,-29.296875,-4.39453125,-15.625
161.3515625,-30.76171875,-36.62109375,-6.8359375,-23.4375
161.35546875,-18.5546875,-48.828125,-11.23046875,-17.08984375
161.359375,-33.69140625,-45.8984375,-20.01953125,-20.5078125
161.36328125,-67.3828125,-40.52734375,-33.69140625,-52.734375
161.3671875,-64.94140625,-46.38671875,-46.875,-59.5703125
161.37109375,-67.87109375,-53.22265625,-61.5234375,-66.40625
161.375,-75.68359375,-59.5703125,-64.453125,-81.0546875
161.37890625,-61.5234375,-56.15234375,-60.546875,-70.80078125
161.3828125,-51.7578125,-47.8515625,-57.12890625,-66.40625
161.38671875,-34.1796875,-27.83203125,-48.33984375,-53.7109375
161.390625,-32.71484375,-10.7421875,-40.52734375,-46.38671875
161.39453125,-34.1796875,-6.34765625,-38.0859375,-40.0390625
161.3984375,-28.3203125,-6.34765625,-41.9921875,-35.64453125
161.40234375,0.0,-0.9765625,-40.0390625,-31.25
161.40625,3.90625,-0.48828125,-42.48046875,-38.57421875
161.41015625,-5.859375,4.39453125,-41.015625,-43.45703125
161.4140625,6.8359375,11.23046875,-26.85546875,-32.71484375
161.41796875,15.13671875,14.6484375,-22.94921875,-26.3671875
161.421875,22.94921875,19.53125,-28.3203125,-11.71875
161.42578125,-0.9765625,12.20703125,-28.80859375,-9.765625
161.4296875,-9.765625,10.25390625,-31.73828125,-4.8828125
161.43359375,0.9765625,13.671875,-32.71484375,3.41796875
161.4375,-6.34765625,-0.48828125,-45.8984375,-11.23046875
161.44140625,-11.23046875,-9.765625,-59.08203125,-20.01953125
161.4453125,-18.5546875,-5.859375,-47.36328125,-20.01953125
161.44921875,-17.08984375,-8.7890625,-33.203125,-12.6953125
161.453125,-8.30078125,-4.8828125,-27.34375,-7.8125
161.45703125,-5.37109375,3.90625,-24.90234375,-13.671875
161.4609375,-4.39453125,-0.48828125,-31.25,-15.13671875
161.46484375,-4.39453125,-0.48828125,-25.390625,-10.7421875
161.46875,3.90625,8.30078125,-14.16015625,-2.44140625
161.47265625,-11.71875,3.41796875,-22.94921875,-12.20703125
161.4765625,-33.203125,-10.7421875,-32.71484375,-29.296875
161.48046875,-20.99609375,-11.23046875,-36.62109375,-25.87890625
161.484375,-13.18359375,-11.71875,-40.0390625,-23.92578125
161.48828125,-8.30078125,-14.6484375,-34.1796875,-23.4375
161.4921875,-13.18359375,-18.5546875,-32.2265625,-28.80859375
161.49609375,-18.06640625,-17.08984375,-38.0859375,-32.71484375
161.5,-9.27734375,-18.06640625,-37.109375,-20.01953125
161.50390625,5.859375,-11.23046875,-24.4140625,-6.34765625
161.5078125,-1.953125,-11.23046875,-12.20703125,-9.27734375
161.51171875,-27.83203125,-18.5546875,-19.04296875,-26.85546875
161.515625,-19.53125,-20.99609375,-25.390625,-22.4609375
161.51953125,-13.18359375,-28.3203125,-30.76171875,-27.83203125
161.5234375,-29.296875,-32.71484375,-40.52734375,-47.36328125
161.52734375,-41.9921875,-31.73828125,-37.59765625,-35.15625
161.53125,-34.66796875,-34.66796875,-40.52734375,-25.390625
161.53515625,-21.484375,-38.0859375,-45.41015625,-26.85546875
161.5390625,-24.90234375,-36.1328125,-46.38671875,-29.78515625
161.54296875,-42.96875,-45.41015625,-50.78125,-46.38671875
161.546875,-56.640625,-55.6640625,-58.10546875,-46.875
161.55078125,-42.96875,-49.8046875,-55.6640625,-41.50390625
161.5546875,-26.85546875,-41.50390625,-44.921875,-42.48046875
161.55859375,-40.0390625,-35.64453125,-40.52734375,-43.45703125
161.5625,-42.96875,-31.73828125,-36.1328125,-36.1328125
161.56640625,-26.3671875,-29.78515625,-27.34375,-31.25
161.5703125,-22.4609375,-37.109375,-31.73828125,-29.296875
161.57421875,-39.0625,-47.8515625,-38.57421875,-42.48046875
161.578125,-57.12890625,-55.17578125,-55.6640625,-54.19921875
161.58203125,-53.7109375,-53.22265625,-61.5234375,-50.29296875
161.5859375,-43.9453125,-44.921875,-46.38671875,-48.33984375
161.58984375,-43.45703125,-41.50390625,-44.921875,-41.9921875
161.59375,-48.33984375,-38.57421875,-40.52734375,-46.875
161.59765625,-43.45703125,-39.0625,-39.55078125,-51.7578125
161.6015625,-42.48046875,-56.15234375,-61.03515625,-59.08203125
161.60546875,-53.7109375,-66.40625,-71.2890625,-64.94140625
161.609375,-67.3828125,-66.40625,-65.4296875,-69.3359375
161.61328125,-65.91796875,-62.5,-66.40625,-74.21875
161.6171875,-55.17578125,-66.89453125,-78.125,-67.87109375
161.62109375,-52.24609375,-76.66015625,-83.984375,-66.89453125
161.625,-65.91796875,-72.265625,-78.125,-73.2421875
161.62890625,-63.4765625,-62.01171875,-69.82421875,-67.3828125
161.6328125,-42.96875,-54.19921875,-62.5,-55.17578125
161.63671875,-37.59765625,-57.12890625,-60.546875,-55.17578125
161.640625,-59.08203125,-56.640625,-54.19921875,-59.5703125
161.64453125,-65.4296875,-51.26953125,-59.08203125,-57.12890625
161.6484375,-64.94140625,-60.546875,-69.82421875,-56.15234375
161.65234375,-63.4765625,-65.4296875,-62.5,-62.5
161.65625,-55.6640625,-62.01171875,-55.6640625,-69.3359375
161.66015625,-53.22265625,-57.12890625,-50.78125,-56.640625
161.6640625,-55.17578125,-52.734375,-53.7109375,-46.38671875
161.66796875,-55.6640625,-55.6640625,-53.7109375,-53.22265625
161.671875,-37.59765625,-61.5234375,-44.921875,-54.6875
161.67578125,-52.24609375,-61.03515625,-52.24609375,-50.78125
161.6796875,-72.75390625,-61.03515625,-59.08203125,-50.29296875
161.68359375,-66.40625,-63.4765625,-64.453125,-55.6640625
161.6875,-59.08203125,-58.59375,-60.546875,-60.05859375
161.69140625,-58.10546875,-49.31640625,-51.26953125,-55.6640625
161.6953125,-61.03515625,-61.03515625,-56.640625,-49.31640625
161.69921875,-66.40625,-72.75390625,-69.3359375,-62.01171875
161.703125,-48.828125,-61.03515625,-60.546875,-46.875
161.70703125,-28.80859375,-42.96875,-38.0859375,-18.5546875
161.7109375,-36.1328125,-32.71484375,-31.25,-16.6015625
161.71484375,-35.15625,-27.83203125,-35.15625,-14.6484375
161.71875,-17.578125,-25.390625,-34.1796875,-8.30078125
161.72265625,-12.6953125,-27.83203125,-41.015625,-12.20703125
161.7265625,-34.66796875,-29.296875,-54.19921875,-41.9921875
161.73046875,-26.85546875,-29.296875,-55.17578125,-44.921875
161.734375,5.37109375,-31.25,-49.31640625,-20.5078125
161.73828125,-15.13671875,-39.0625,-46.38671875,-28.3203125
161.7421875,-41.015625,-46.875,-46.38671875,-37.59765625
161.74609375,-25.390625,-47.8515625,-47.36328125,-14.16015625
161.75,-6.8359375,-38.0859375,-43.45703125,-2.9296875
161.75390625,-12.6953125,-39.0625,-49.31640625,-15.13671875
161.7578125,-34.1796875,-45.8984375,-62.01171875,-30.2734375
161.76171875,-58.59375,-52.734375,-69.3359375,-45.41015625
161.765625,-47.36328125,-54.6875,-68.359375,-47.36328125
161.76953125,-9.27734375,-45.41015625,-60.05859375,-38.57421875
161.7734375,-25.87890625,-39.0625,-56.15234375,-43.9453125
161.77734375,-32.2265625,-33.69140625,-43.45703125,-34.66796875
161.78125,-21.97265625,-35.64453125,-36.1328125,-23.4375
161.78515625,-8.7890625,-35.15625,-34.66796875,-18.5546875
161.7890625,8.7890625,-31.25,-27.34375,-2.44140625
161.79296875,-8.7890625,-28.80859375,-19.04296875,-10.7421875
161.796875,-28.80859375,-28.80859375,-20.01953125,-31.25
161.80078125,-28.3203125,-29.296875,-25.87890625,-30.2734375
161.8046875,-19.04296875,-30.2734375,-20.99609375,-20.5078125
161.80859375,-8.7890625,-24.4140625,-12.6953125,-8.7890625
161.8125,-14.16015625,-12.20703125,-5.37109375,-8.30078125
161.81640625,-11.23046875,-10.25390625,-3.90625,-12.20703125
161.8203125,-2.44140625,-15.13671875,-5.37109375,-4.39453125
161.82421875,-3.90625,-18.06640625,-7.8125,-8.7890625
161.828125,-21.484375,-20.5078125,-12.6953125,-14.16015625
161.83203125,-22.4609375,-21.484375,-7.8125,-16.11328125
161.8359375,-13.18359375,-20.99609375,-7.32421875,-15.13671875
161.83984375,-27.83203125,-22.94921875,-10.7421875,-16.11328125
161.84375,-30.2734375,-30.2734375,-2.9296875,-16.6015625
161.84765625,-14.16015625,-20.01953125,-1.46484375,-9.27734375
161.8515625,-11.23046875,-11.71875,-12.20703125,-11.23046875
161.85546875,-24.4140625,-25.87890625,-14.6484375,-20.99609375
161.859375,-36.62109375,-32.2265625,-17.08984375,-21.97265625
161.86328125,-43.9453125,-28.80859375,-28.3203125,-26.85546875
161.8671875,-28.3203125,-17.578125,-18.5546875,-16.11328125
161.87109375,-25.87890625,-15.625,-13.671875,-13.671875
161.875,-25.390625,-18.5546875,-12.6953125,-21.97265625
161.87890625,-40.0390625,-19.04296875,-11.71875,-32.2265625
161.8828125,-40.52734375,-27.34375,-10.7421875,-32.71484375
161.88671875,-20.5078125,-30.2734375,-0.9765625,-23.4375
161.890625,-17.08984375,-21.484375,3.90625,-23.92578125
161.89453125,-34.1796875,-22.4609375,2.9296875,-24.90234375
