Timestamp,TP9,AF7,AF8,TP10
0.00390625,21.97265625,1.46484375,14.16015625,11.23046875
0.0078125,17.578125,0.9765625,10.7421875,21.484375
0.01171875,37.59765625,0.0,11.23046875,21.97265625
0.015625,40.52734375,-1.953125,13.18359375,9.27734375
0.01953125,17.08984375,-7.32421875,12.6953125,-5.37109375
0.0234375,5.37109375,-10.25390625,8.30078125,-7.32421875
0.02734375,12.20703125,-10.7421875,1.953125,9.765625
0.03125,17.08984375,-9.27734375,0.0,18.06640625
0.03515625,11.23046875,-14.6484375,-2.9296875,8.7890625
0.0390625,-19.53125,-21.484375,-5.37109375,-0.9765625
0.04296875,-25.390625,-20.01953125,-9.27734375,-16.6015625
0.046875,-3.41796875,-19.04296875,-9.27734375,-26.3671875
0.05078125,-8.7890625,-22.94921875,-0.48828125,-19.04296875
0.0546875,-17.08984375,-23.4375,-5.859375,-21.484375
0.05859375,-27.34375,-22.4609375,-16.11328125,-17.08984375
0.0625,-20.01953125,-26.85546875,-14.16015625,-5.859375
0.06640625,-1.46484375,-28.3203125,-10.7421875,-8.30078125
0.0703125,-13.671875,-25.87890625,-12.20703125,-15.625
0.07421875,-28.80859375,-24.90234375,-13.18359375,-18.06640625
0.078125,-23.4375,-27.83203125,-8.30078125,-8.30078125
0.08203125,-1.46484375,-10.25390625,-2.9296875,-11.23046875
0.0859375,-7.32421875,-4.39453125,-6.34765625,-34.1796875
0.08984375,-20.01953125,-17.08984375,-4.8828125,-18.06640625
0.09375,-5.859375,-18.5546875,-5.859375,-6.8359375
0.09765625,12.6953125,-18.06640625,-9.765625,-18.06640625
0.1015625,0.48828125,-17.08984375,-6.8359375,-20.5078125
0.10546875,-15.625,-13.671875,-9.27734375,-7.8125
0.109375,-11.71875,-10.25390625,-2.44140625,2.44140625
0.11328125,-0.48828125,-15.625,-5.37109375,-1.953125
0.1171875,-3.41796875,-28.3203125,-20.99609375,-14.16015625
0.12109375,-19.53125,-12.6953125,-12.20703125,-8.30078125
0.125,-8.7890625,0.0,-5.859375,0.0
0.12890625,-1.953125,-19.04296875,-12.6953125,-3.90625
0.1328125,-1.953125,-20.99609375,-17.578125,-2.44140625
0.13671875,-20.99609375,-22.4609375,-17.08984375,-23.4375
0.140625,-40.52734375,-29.296875,-22.4609375,-55.6640625
0.14453125,-19.53125,-24.90234375,-27.83203125,-42.48046875
0.1484375,4.8828125,-22.4609375,-20.99609375,-16.11328125
0.15234375,-6.8359375,-25.87890625,-23.4375,-15.13671875
0.15625,-30.2734375,-37.59765625,-26.85546875,-16.11328125
0.16015625,-20.99609375,-40.52734375,-24.4140625,-9.27734375
0.1640625,-0.48828125,-36.1328125,-23.4375,-13.671875
0.16796875,-5.859375,-40.0390625,-19.53125,-18.5546875
0.171875,-19.53125,-41.015625,-20.99609375,-16.11328125
0.17578125,-26.3671875,-39.55078125,-26.85546875,-14.16015625
0.1796875,-31.73828125,-36.62109375,-26.3671875,-24.4140625
0.18359375,-26.3671875,-35.64453125,-25.87890625,-38.0859375
0.1875,-38.57421875,-42.48046875,-26.85546875,-41.9921875
0.19140625,-49.31640625,-41.9921875,-34.66796875,-40.0390625
0.1953125,-23.4375,-44.43359375,-37.109375,-21.484375
0.19921875,-18.5546875,-51.26953125,-28.80859375,-20.01953125
0.203125,-39.0625,-45.8984375,-34.66796875,-36.62109375
0.20703125,-59.08203125,-43.45703125,-35.64453125,-35.64453125
0.2109375,-47.8515625,-45.41015625,-27.83203125,-24.90234375
0.21484375,-23.4375,-45.41015625,-31.73828125,-24.90234375
0.21875,-24.4140625,-43.9453125,-38.0859375,-36.1328125
0.22265625,-36.62109375,-43.9453125,-39.0625,-39.55078125
0.2265625,-46.38671875,-52.24609375,-45.41015625,-36.62109375
0.23046875,-38.57421875,-55.6640625,-51.7578125,-37.59765625
0.234375,-42.48046875,-55.17578125,-53.7109375,-43.9453125
0.23828125,-55.6640625,-51.26953125,-51.26953125,-40.52734375
0.2421875,-59.5703125,-56.640625,-51.7578125,-45.8984375
0.24609375,-42.96875,-62.98828125,-53.7109375,-48.33984375
0.25,-34.66796875,-58.10546875,-48.828125,-30.2734375
0.25390625,-46.875,-59.08203125,-50.29296875,-31.25
0.2578125,-53.7109375,-61.5234375,-56.640625,-40.52734375
0.26171875,-37.109375,-43.45703125,-50.78125,-39.0625
0.265625,-30.76171875,-44.921875,-48.828125,-46.38671875
0.26953125,-48.33984375,-67.3828125,-49.8046875,-63.96484375
0.2734375,-52.734375,-62.98828125,-44.921875,-60.05859375
0.27734375,-51.7578125,-62.01171875,-51.7578125,-66.89453125
0.28125,-38.57421875,-62.98828125,-57.6171875,-68.359375
0.28515625,-37.59765625,-57.6171875,-61.03515625,-52.734375
0.2890625,-59.08203125,-55.17578125,-64.94140625,-50.29296875
0.29296875,-56.15234375,-59.5703125,-61.5234375,-49.8046875
0.296875,-41.50390625,-62.98828125,-56.640625,-51.7578125
0.30078125,-33.69140625,-52.734375,-44.43359375,-50.29296875
0.3046875,-43.9453125,-51.7578125,-43.45703125,-60.05859375
0.30859375,-62.5,-62.5,-52.24609375,-62.01171875
0.3125,-50.29296875,-58.10546875,-59.5703125,-55.6640625
0.31640625,-38.0859375,-57.6171875,-60.05859375,-52.734375
0.3203125,-56.15234375,-52.734375,-60.546875,-50.78125
0.32421875,-64.453125,-53.7109375,-63.4765625,-81.0546875
0.328125,-53.22265625,-64.453125,-60.05859375,-86.9140625
0.33203125,-47.8515625,-59.08203125,-48.828125,-62.5
0.3359375,-38.57421875,-50.29296875,-47.36328125,-55.6640625
0.33984375,-49.31640625,-46.875,-56.15234375,-49.31640625
0.34375,-56.640625,-51.26953125,-55.6640625,-51.7578125
0.34765625,-41.9921875,-57.12890625,-62.5,-46.38671875
0.3515625,-41.015625,-57.6171875,-65.4296875,-40.0390625
0.35546875,-52.24609375,-55.6640625,-58.59375,-49.31640625
0.359375,-55.6640625,-45.41015625,-56.15234375,-46.875
0.36328125,-42.48046875,-38.57421875,-50.78125,-25.390625
0.3671875,-28.80859375,-50.29296875,-49.31640625,-30.2734375
0.37109375,-37.109375,-50.29296875,-46.875,-49.8046875
0.375,-50.29296875,-45.41015625,-46.38671875,-52.734375
0.37890625,-36.1328125,-46.38671875,-51.26953125,-39.55078125
0.3828125,-25.390625,-45.8984375,-49.8046875,-38.0859375
0.38671875,-35.15625,-45.8984375,-48.828125,-45.41015625
0.390625,-41.50390625,-50.78125,-53.7109375,-48.33984375
0.39453125,-37.59765625,-53.22265625,-58.59375,-44.43359375
0.3984375,-25.87890625,-55.17578125,-59.08203125,-45.41015625
0.40234375,-32.71484375,-56.640625,-58.10546875,-44.43359375
0.40625,-61.5234375,-57.6171875,-59.08203125,-52.24609375
0.41015625,-55.6640625,-56.640625,-57.6171875,-55.17578125
0.4140625,-26.85546875,-53.22265625,-61.03515625,-35.64453125
0.41796875,-38.0859375,-59.08203125,-64.453125,-36.62109375
0.421875,-56.640625,-60.05859375,-62.5,-43.45703125
0.42578125,-69.3359375,-63.96484375,-67.87109375,-51.26953125
0.4296875,-47.36328125,-67.87109375,-71.77734375,-45.8984375
0.43359375,-28.3203125,-60.05859375,-65.4296875,-36.62109375
0.4375,-53.22265625,-63.4765625,-67.87109375,-47.36328125
0.44140625,-65.4296875,-65.91796875,-77.1484375,-54.19921875
0.4453125,-66.89453125,-72.265625,-84.47265625,-54.6875
0.44921875,-65.4296875,-78.125,-90.33203125,-59.5703125
0.453125,-68.359375,-80.56640625,-92.28515625,-72.265625
0.45703125,-82.51953125,-85.9375,-89.84375,-80.56640625
0.4609375,-86.42578125,-77.63671875,-84.9609375,-77.1484375
0.46484375,-65.4296875,-78.61328125,-85.9375,-62.01171875
0.46875,-72.265625,-87.890625,-89.84375,-67.3828125
0.47265625,-80.56640625,-87.40234375,-89.35546875,-69.3359375
0.4765625,-58.10546875,-82.51953125,-85.9375,-44.921875
0.48046875,-43.9453125,-76.171875,-79.1015625,-38.57421875
0.484375,-49.8046875,-73.2421875,-78.125,-52.734375
0.48828125,-59.5703125,-71.2890625,-75.1953125,-66.40625
0.4921875,-65.91796875,-73.73046875,-72.265625,-60.546875
0.49609375,-70.80078125,-77.63671875,-73.73046875,-59.5703125
0.5,-63.96484375,-79.1015625,-79.58984375,-64.453125
0.50390625,-75.68359375,-80.078125,-84.9609375,-63.96484375
0.5078125,-71.2890625,-78.61328125,-86.9140625,-76.171875
0.51171875,-60.546875,-73.73046875,-86.9140625,-80.078125
0.515625,-47.8515625,-77.1484375,-84.9609375,-67.3828125
0.51953125,-47.8515625,-74.21875,-89.35546875,-63.4765625
0.5234375,-76.66015625,-73.2421875,-95.21484375,-70.3125
0.52734375,-84.9609375,-83.984375,-100.09765625,-72.75390625
0.53125,-63.96484375,-85.9375,-99.12109375,-56.640625
0.53515625,-71.2890625,-85.9375,-100.09765625,-65.91796875
0.5390625,-88.8671875,-78.61328125,-91.30859375,-84.9609375
0.54296875,-75.68359375,-62.98828125,-82.51953125,-77.1484375
0.546875,-66.89453125,-74.21875,-92.28515625,-75.68359375
0.55078125,-62.01171875,-86.42578125,-91.796875,-72.265625
0.5546875,-80.56640625,-83.49609375,-93.26171875,-77.63671875
0.55859375,-100.09765625,-90.33203125,-98.14453125,-83.984375
0.5625,-92.7734375,-91.30859375,-96.6796875,-79.58984375
0.56640625,-84.9609375,-89.35546875,-96.19140625,-93.75
0.5703125,-88.8671875,-89.35546875,-96.19140625,-102.05078125
0.57421875,-98.6328125,-89.35546875,-96.19140625,-87.40234375
0.578125,-84.9609375,-89.84375,-95.703125,-72.265625
0.58203125,-70.3125,-85.9375,-96.6796875,-70.3125
0.5859375,-74.70703125,-85.9375,-94.23828125,-87.40234375
0.58984375,-86.42578125,-88.8671875,-91.796875,-97.65625
0.59375,-82.03125,-83.0078125,-93.26171875,-82.51953125
0.59765625,-64.94140625,-78.61328125,-93.75,-69.3359375
0.6015625,-69.82421875,-72.75390625,-86.42578125,-64.94140625
0.60546875,-93.26171875,-77.1484375,-87.890625,-68.359375
0.609375,-101.5625,-81.54296875,-94.23828125,-61.5234375
0.61328125,-84.9609375,-78.125,-92.7734375,-58.10546875
0.6171875,-80.078125,-81.0546875,-95.703125,-82.03125
0.62109375,-87.40234375,-87.40234375,-92.28515625,-99.609375
0.625,-86.42578125,-82.03125,-89.35546875,-82.51953125
0.62890625,-75.68359375,-81.0546875,-92.7734375,-72.75390625
0.6328125,-74.70703125,-85.9375,-94.23828125,-86.9140625
0.63671875,-91.796875,-81.54296875,-85.9375,-101.07421875
0.640625,-111.81640625,-66.40625,-75.68359375,-117.1875
0.64453125,-121.09375,-68.84765625,-80.078125,-123.53515625
0.6484375,-116.69921875,-73.2421875,-75.68359375,-119.62890625
0.65234375,-121.58203125,-66.40625,-59.08203125,-121.09375
0.65625,-128.41796875,-66.89453125,-50.78125,-121.09375
0.66015625,-150.390625,-69.3359375,-60.546875,-158.203125
0.6640625,-162.109375,-73.2421875,-66.89453125,-188.4765625
0.66796875,-172.36328125,-62.01171875,-59.08203125,-184.5703125
0.671875,-191.40625,-42.48046875,-46.38671875,-187.98828125
0.67578125,-213.37890625,-29.78515625,-37.109375,-208.0078125
0.6796875,-217.28515625,-26.85546875,-36.1328125,-230.46875
0.68359375,-224.609375,-20.5078125,-30.76171875,-230.46875
0.6875,-225.09765625,-14.16015625,-15.625,-224.609375
0.69140625,-224.12109375,-11.71875,-7.32421875,-216.796875
0.6953125,-226.07421875,-10.7421875,-13.671875,-217.7734375
0.69921875,-213.37890625,-22.4609375,-20.5078125,-232.421875
0.703125,-229.00390625,-30.2734375,-24.4140625,-233.3984375
0.70703125,-250.48828125,-32.2265625,-20.5078125,-227.5390625
0.7109375,-244.140625,-50.29296875,-32.2265625,-234.86328125
0.71484375,-223.14453125,-59.5703125,-43.45703125,-225.5859375
0.71875,-214.84375,-61.03515625,-54.6875,-210.9375
0.72265625,-224.12109375,-73.73046875,-68.359375,-215.33203125
0.7265625,-211.42578125,-76.66015625,-64.453125,-201.66015625
0.73046875,-181.15234375,-78.61328125,-68.359375,-172.8515625
0.734375,-167.48046875,-82.03125,-73.2421875,-162.109375
0.73828125,-168.9453125,-87.40234375,-82.03125,-168.45703125
0.7421875,-156.73828125,-98.6328125,-95.703125,-161.1328125
0.74609375,-141.6015625,-99.12109375,-102.05078125,-149.90234375
0.75,-128.90625,-94.23828125,-109.375,-133.30078125
0.75390625,-103.515625,-88.8671875,-116.2109375,-104.98046875
0.7578125,-96.19140625,-98.6328125,-118.1640625,-88.8671875
0.76171875,-91.30859375,-108.88671875,-125.48828125,-79.58984375
0.765625,-74.70703125,-107.91015625,-135.25390625,-57.6171875
0.76953125,-79.58984375,-107.91015625,-134.765625,-56.15234375
0.7734375,-79.1015625,-110.3515625,-130.37109375,-50.78125
0.77734375,-74.21875,-118.1640625,-136.71875,-61.5234375
0.78125,-57.12890625,-129.8828125,-139.6484375,-73.73046875
0.78515625,-46.875,-127.9296875,-132.8125,-42.48046875
0.7890625,-62.98828125,-118.1640625,-141.11328125,-44.43359375
0.79296875,-50.78125,-120.60546875,-140.625,-39.55078125
0.796875,-22.94921875,-125.0,-128.90625,-23.4375
0.80078125,-35.64453125,-120.1171875,-131.8359375,-54.19921875
0.8046875,-56.640625,-117.67578125,-136.71875,-57.12890625
0.80859375,-34.1796875,-120.1171875,-135.7421875,-34.66796875
0.8125,-21.484375,-113.76953125,-136.23046875,-29.78515625
0.81640625,-20.01953125,-106.4453125,-137.20703125,-31.25
0.8203125,-29.78515625,-107.421875,-138.18359375,-34.1796875
0.82421875,-50.29296875,-114.74609375,-139.6484375,-42.48046875
0.828125,-42.48046875,-118.65234375,-141.6015625,-42.96875
0.83203125,-28.3203125,-121.09375,-142.578125,-40.0390625
0.8359375,-40.0390625,-116.2109375,-135.7421875,-50.29296875
0.83984375,-59.08203125,-108.88671875,-134.27734375,-54.19921875
0.84375,-56.15234375,-110.83984375,-136.71875,-50.29296875
0.84765625,-22.94921875,-107.91015625,-126.953125,-61.03515625
0.8515625,-22.94921875,-108.88671875,-126.953125,-71.2890625
0.85546875,-50.29296875,-107.91015625,-135.7421875,-60.05859375
0.859375,-47.36328125,-99.609375,-131.8359375,-41.9921875
0.86328125,-19.04296875,-90.8203125,-125.9765625,-22.94921875
0.8671875,1.46484375,-87.890625,-121.58203125,-18.5546875
0.87109375,-15.13671875,-88.8671875,-115.234375,-21.484375
0.875,-27.34375,-89.35546875,-114.2578125,-20.5078125
0.87890625,-26.85546875,-85.44921875,-115.72265625,-14.6484375
0.8828125,-19.53125,-75.1953125,-114.74609375,-14.6484375
0.88671875,-22.94921875,-86.9140625,-107.91015625,-32.71484375
0.890625,-39.0625,-87.40234375,-101.07421875,-40.52734375
0.89453125,-31.73828125,-80.078125,-100.5859375,-33.69140625
0.8984375,-23.4375,-79.1015625,-101.07421875,-20.5078125
0.90234375,-42.96875,-79.1015625,-103.02734375,-25.390625
0.90625,-58.59375,-84.9609375,-109.375,-41.015625
0.91015625,-51.7578125,-84.9609375,-106.93359375,-31.73828125
0.9140625,-31.73828125,-76.66015625,-91.796875,-19.04296875
0.91796875,-25.87890625,-70.80078125,-83.49609375,-23.4375
0.921875,-42.96875,-70.3125,-84.47265625,-32.71484375
0.92578125,-50.29296875,-75.1953125,-86.9140625,-40.0390625
0.9296875,-27.83203125,-76.171875,-80.56640625,-38.0859375
0.93359375,-32.2265625,-81.54296875,-85.44921875,-42.96875
0.9375,-55.6640625,-84.9609375,-91.30859375,-44.43359375
0.94140625,-50.78125,-93.26171875,-89.35546875,-44.921875
0.9453125,-59.5703125,-100.09765625,-98.14453125,-52.734375
0.94921875,-65.4296875,-98.6328125,-110.3515625,-58.10546875
0.953125,-66.89453125,-98.14453125,-109.86328125,-68.84765625
0.95703125,-82.51953125,-84.47265625,-100.09765625,-79.1015625
0.9609375,-66.89453125,-112.3046875,-97.65625,-66.40625
0.96484375,-47.8515625,-130.859375,-102.05078125,-52.24609375
0.96875,-82.51953125,-108.3984375,-115.234375,-80.56640625
0.97265625,-110.3515625,-114.74609375,-125.48828125,-106.93359375
0.9765625,-96.19140625,-116.2109375,-130.37109375,-100.5859375
0.98046875,-77.1484375,-105.95703125,-128.41796875,-79.1015625
0.984375,-69.82421875,-106.93359375,-121.58203125,-79.58984375
0.98828125,-86.9140625,-109.86328125,-118.65234375,-83.984375
0.9921875,-98.14453125,-103.515625,-114.74609375,-75.68359375
0.99609375,-89.35546875,-103.515625,-107.91015625,-79.58984375
1.0,-83.49609375,-104.98046875,-103.515625,-85.9375
1.00390625,-87.40234375,-97.16796875,-108.88671875,-93.26171875
1.0078125,-86.9140625,-91.796875,-105.46875,-84.47265625
1.01171875,-67.87109375,-96.6796875,-100.5859375,-62.01171875
1.015625,-65.91796875,-94.7265625,-99.12109375,-64.453125
1.01953125,-87.40234375,-101.07421875,-97.65625,-75.68359375
1.0234375,-88.8671875,-110.83984375,-97.65625,-75.1953125
1.02734375,-88.8671875,-98.6328125,-89.35546875,-65.4296875
1.03125,-78.61328125,-94.7265625,-83.0078125,-51.7578125
1.03515625,-73.2421875,-91.30859375,-96.19140625,-62.5
1.0390625,-97.16796875,-97.65625,-93.75,-81.0546875
1.04296875,-93.75,-101.5625,-80.56640625,-83.984375
1.046875,-63.96484375,-86.9140625,-79.1015625,-89.84375
1.05078125,-72.75390625,-88.37890625,-83.984375,-88.8671875
1.0546875,-86.9140625,-93.75,-86.9140625,-81.0546875
1.05859375,-83.0078125,-95.703125,-90.8203125,-70.3125
1.0625,-84.47265625,-102.05078125,-95.703125,-63.96484375
1.06640625,-86.42578125,-100.5859375,-96.19140625,-74.21875
1.0703125,-85.44921875,-94.7265625,-96.19140625,-72.75390625
1.07421875,-78.61328125,-91.30859375,-89.35546875,-61.03515625
1.078125,-72.265625,-88.37890625,-85.9375,-62.98828125
1.08203125,-58.59375,-87.40234375,-89.35546875,-65.91796875
1.0859375,-60.05859375,-84.47265625,-89.84375,-67.3828125
1.08984375,-82.51953125,-84.47265625,-93.26171875,-68.84765625
1.09375,-84.47265625,-88.8671875,-93.75,-88.37890625
1.09765625,-62.5,-77.63671875,-88.37890625,-84.47265625
1.1015625,-52.734375,-104.00390625,-84.47265625,-58.10546875
1.10546875,-85.44921875,-115.234375,-85.44921875,-64.94140625
1.109375,-95.21484375,-84.9609375,-84.9609375,-60.05859375
1.11328125,-77.63671875,-88.8671875,-88.37890625,-56.15234375
1.1171875,-74.70703125,-90.8203125,-99.609375,-67.3828125
1.12109375,-83.0078125,-86.9140625,-97.16796875,-71.77734375
1.125,-86.42578125,-85.9375,-90.33203125,-62.5
1.12890625,-69.3359375,-85.9375,-99.12109375,-64.453125
1.1328125,-56.640625,-87.890625,-93.75,-84.9609375
1.13671875,-66.40625,-84.47265625,-79.58984375,-83.984375
1.140625,-80.56640625,-75.68359375,-76.66015625,-64.453125
1.14453125,-60.05859375,-72.265625,-73.2421875,-47.36328125
1.1484375,-46.38671875,-79.1015625,-78.61328125,-48.33984375
1.15234375,-64.94140625,-81.0546875,-77.1484375,-59.08203125
1.15625,-74.21875,-77.63671875,-70.80078125,-59.5703125
1.16015625,-63.4765625,-78.61328125,-74.21875,-46.38671875
1.1640625,-63.96484375,-77.63671875,-77.1484375,-40.0390625
1.16796875,-69.3359375,-82.51953125,-83.49609375,-64.453125
1.171875,-87.890625,-90.8203125,-88.37890625,-92.28515625
1.17578125,-97.16796875,-89.35546875,-91.796875,-95.21484375
1.1796875,-76.171875,-86.42578125,-85.9375,-81.54296875
1.18359375,-65.91796875,-81.54296875,-83.0078125,-76.66015625
1.1875,-82.51953125,-78.61328125,-80.078125,-81.0546875
1.19140625,-90.8203125,-67.87109375,-73.2421875,-72.265625
1.1953125,-85.44921875,-62.01171875,-69.82421875,-60.05859375
1.19921875,-62.5,-67.3828125,-64.453125,-58.10546875
1.203125,-60.05859375,-75.68359375,-66.89453125,-62.5
1.20703125,-79.58984375,-73.2421875,-67.87109375,-69.3359375
1.2109375,-73.73046875,-70.3125,-66.89453125,-62.98828125
1.21484375,-52.24609375,-61.5234375,-67.3828125,-48.828125
1.21875,-53.22265625,-49.8046875,-64.94140625,-43.45703125
1.22265625,-68.359375,-50.78125,-61.5234375,-47.8515625
1.2265625,-55.17578125,-54.19921875,-64.453125,-54.6875
1.23046875,-48.828125,-55.17578125,-61.5234375,-63.4765625
1.234375,-51.7578125,-49.8046875,-51.7578125,-68.84765625
1.23828125,-55.17578125,-42.96875,-49.31640625,-58.59375
1.2421875,-67.3828125,-73.2421875,-55.17578125,-55.6640625
1.24609375,-54.19921875,-72.75390625,-62.98828125,-48.828125
1.25,-49.31640625,-52.734375,-74.70703125,-45.8984375
1.25390625,-71.77734375,-59.08203125,-73.2421875,-59.5703125
1.2578125,-83.0078125,-56.640625,-64.453125,-64.453125
1.26171875,-64.453125,-57.12890625,-65.4296875,-54.6875
1.265625,-50.29296875,-63.4765625,-68.84765625,-56.15234375
1.26953125,-76.171875,-70.3125,-74.70703125,-66.40625
1.2734375,-92.7734375,-73.2421875,-80.56640625,-85.44921875
1.27734375,-83.984375,-73.73046875,-81.0546875,-86.42578125
1.28125,-64.453125,-75.1953125,-81.54296875,-68.84765625
1.28515625,-62.01171875,-76.66015625,-83.49609375,-77.63671875
1.2890625,-70.80078125,-71.2890625,-74.21875,-83.984375
1.29296875,-58.10546875,-64.94140625,-61.03515625,-68.359375
1.296875,-41.9921875,-53.7109375,-59.08203125,-34.1796875
1.30078125,-44.43359375,-72.265625,-54.19921875,-46.38671875
1.3046875,-63.4765625,-78.61328125,-57.6171875,-80.56640625
1.30859375,-69.3359375,-60.05859375,-66.89453125,-66.40625
1.3125,-54.6875,-63.96484375,-72.265625,-62.01171875
1.31640625,-52.734375,-64.94140625,-77.63671875,-61.5234375
1.3203125,-74.21875,-67.87109375,-74.70703125,-61.5234375
1.32421875,-85.9375,-67.3828125,-74.21875,-73.2421875
1.328125,-60.546875,-64.94140625,-70.80078125,-59.5703125
1.33203125,-47.36328125,-67.87109375,-70.3125,-49.8046875
1.3359375,-59.08203125,-60.05859375,-73.73046875,-69.82421875
1.33984375,-77.1484375,-73.73046875,-70.3125,-90.33203125
1.34375,-82.51953125,-96.6796875,-70.3125,-77.63671875
1.34765625,-70.80078125,-76.171875,-76.171875,-64.453125
1.3515625,-74.21875,-61.5234375,-78.125,-84.47265625
1.35546875,-81.0546875,-58.59375,-77.63671875,-78.61328125
1.359375,-83.0078125,-61.5234375,-78.61328125,-83.49609375
1.36328125,-73.2421875,-69.3359375,-79.1015625,-94.23828125
1.3671875,-61.03515625,-63.4765625,-84.9609375,-88.37890625
1.37109375,-81.54296875,-67.87109375,-87.40234375,-89.35546875
1.375,-98.6328125,-70.3125,-85.9375,-92.7734375
1.37890625,-80.56640625,-76.66015625,-81.54296875,-93.26171875
1.3828125,-60.05859375,-87.890625,-80.078125,-95.21484375
1.38671875,-69.82421875,-73.73046875,-80.56640625,-95.21484375
1.390625,-91.30859375,-63.96484375,-71.77734375,-90.33203125
1.39453125,-70.3125,-54.6875,-68.359375,-79.1015625
1.3984375,-34.1796875,-48.828125,-64.94140625,-58.10546875
1.40234375,-57.12890625,-63.4765625,-62.5,-50.78125
1.40625,-81.0546875,-63.4765625,-67.3828125,-60.546875
1.41015625,-60.546875,-51.26953125,-66.40625,-58.10546875
1.4140625,-38.0859375,-53.7109375,-70.80078125,-48.828125
1.41796875,-54.19921875,-62.5,-73.2421875,-58.10546875
1.421875,-68.359375,-62.5,-68.359375,-68.84765625
1.42578125,-70.3125,-61.5234375,-69.3359375,-64.94140625
1.4296875,-67.87109375,-65.4296875,-68.359375,-58.10546875
1.43359375,-57.6171875,-64.453125,-75.1953125,-68.84765625
1.4375,-69.3359375,-62.98828125,-82.03125,-81.0546875
1.44140625,-80.078125,-66.89453125,-73.73046875,-68.84765625
1.4453125,-61.03515625,-65.4296875,-72.265625,-58.59375
1.44921875,-53.7109375,-63.4765625,-71.2890625,-74.21875
1.453125,-62.01171875,-62.5,-70.3125,-77.63671875
1.45703125,-69.3359375,-58.10546875,-71.77734375,-68.84765625
1.4609375,-62.01171875,-71.2890625,-63.96484375,-62.5
1.46484375,-47.8515625,-72.75390625,-56.15234375,-52.24609375
1.46875,-59.5703125,-62.5,-57.6171875,-59.5703125
1.47265625,-79.58984375,-64.453125,-62.01171875,-73.73046875
1.4765625,-56.15234375,-48.828125,-60.546875,-66.40625
1.48046875,-29.296875,-65.4296875,-60.546875,-59.08203125
1.484375,-49.31640625,-85.44921875,-57.6171875,-68.359375
1.48828125,-70.3125,-56.15234375,-55.6640625,-63.96484375
1.4921875,-64.94140625,-43.9453125,-55.17578125,-50.29296875
1.49609375,-50.29296875,-43.45703125,-46.875,-52.734375
1.5,-41.50390625,-43.45703125,-40.52734375,-61.5234375
1.50390625,-54.19921875,-40.0390625,-41.015625,-61.5234375
1.5078125,-60.05859375,-37.109375,-50.29296875,-61.5234375
1.51171875,-54.6875,-39.0625,-51.26953125,-53.7109375
1.515625,-50.78125,-40.52734375,-47.8515625,-44.921875
1.51953125,-48.828125,-42.96875,-43.45703125,-48.828125
1.5234375,-60.546875,-49.31640625,-44.43359375,-55.6640625
1.52734375,-53.22265625,-48.33984375,-55.17578125,-54.19921875
1.53125,-34.66796875,-52.734375,-55.17578125,-37.59765625
1.53515625,-47.8515625,-61.03515625,-56.640625,-58.10546875
1.5390625,-76.171875,-60.546875,-61.03515625,-72.75390625
1.54296875,-78.125,-59.08203125,-61.5234375,-55.17578125
1.546875,-70.80078125,-58.10546875,-63.4765625,-58.10546875
1.55078125,-58.59375,-54.19921875,-59.5703125,-58.59375
1.5546875,-43.9453125,-51.7578125,-53.22265625,-44.921875
1.55859375,-53.7109375,-56.640625,-55.6640625,-45.41015625
1.5625,-58.10546875,-62.01171875,-60.546875,-53.7109375
1.56640625,-56.15234375,-57.12890625,-56.640625,-55.17578125
1.5703125,-62.5,-52.734375,-56.15234375,-61.03515625
1.57421875,-66.40625,-54.19921875,-61.03515625,-71.2890625
1.578125,-67.87109375,-56.640625,-66.40625,-67.3828125
1.58203125,-55.17578125,-70.80078125,-70.80078125,-54.19921875
1.5859375,-70.3125,-70.3125,-68.84765625,-60.05859375
1.58984375,-92.28515625,-56.640625,-61.5234375,-72.265625
1.59375,-75.1953125,-53.22265625,-59.08203125,-64.453125
1.59765625,-53.22265625,-53.7109375,-60.546875,-63.96484375
1.6015625,-64.94140625,-57.6171875,-61.03515625,-65.91796875
1.60546875,-72.75390625,-53.22265625,-59.08203125,-55.6640625
1.609375,-58.10546875,-47.36328125,-51.7578125,-52.734375
1.61328125,-41.9921875,-46.875,-53.22265625,-46.875
1.6171875,-29.78515625,-45.41015625,-57.12890625,-35.15625
1.62109375,-46.38671875,-37.109375,-52.24609375,-40.0390625
1.625,-60.546875,-38.57421875,-48.828125,-38.0859375
1.62890625,-45.41015625,-46.875,-50.78125,-37.59765625
1.6328125,-40.52734375,-41.50390625,-52.24609375,-48.33984375
1.63671875,-59.08203125,-51.26953125,-51.26953125,-55.17578125
1.640625,-53.7109375,-54.19921875,-47.36328125,-60.546875
1.64453125,-38.0859375,-41.9921875,-51.7578125,-53.22265625
1.6484375,-40.52734375,-37.109375,-48.828125,-56.640625
1.65234375,-43.45703125,-30.76171875,-36.1328125,-57.6171875
1.65625,-48.828125,-25.87890625,-32.71484375,-29.296875
1.66015625,-45.41015625,-24.4140625,-28.80859375,-20.01953125
1.6640625,-29.296875,-25.390625,-28.80859375,-17.578125
1.66796875,-45.41015625,-28.3203125,-34.1796875,-17.08984375
1.671875,-64.94140625,-29.296875,-34.1796875,-27.83203125
1.67578125,-55.6640625,-29.78515625,-32.71484375,-28.80859375
1.6796875,-31.25,-26.3671875,-29.78515625,-26.3671875
1.68359375,-24.90234375,-24.90234375,-28.80859375,-16.11328125
1.6875,-43.45703125,-25.390625,-31.25,-18.06640625
1.69140625,-48.828125,-22.4609375,-25.87890625,-36.1328125
1.6953125,-32.71484375,-12.6953125,-16.6015625,-29.78515625
1.69921875,-22.4609375,-12.20703125,-19.04296875,-28.3203125
1.703125,-28.80859375,-13.671875,-23.4375,-31.73828125
1.70703125,-34.66796875,-12.6953125,-19.53125,-25.87890625
1.7109375,-31.73828125,-13.18359375,-20.5078125,-13.671875
1.71484375,-23.4375,-11.23046875,-20.99609375,-7.8125
1.71875,-27.83203125,-22.94921875,-22.4609375,-19.04296875
1.72265625,-35.64453125,-23.4375,-22.94921875,-16.11328125
1.7265625,-25.390625,-17.08984375,-20.01953125,-11.71875
1.73046875,-12.6953125,-21.484375,-18.5546875,-9.27734375
1.734375,-28.80859375,-19.53125,-22.94921875,-31.25
1.73828125,-38.57421875,-16.11328125,-27.34375,-47.36328125
1.7421875,-28.3203125,-10.25390625,-20.5078125,-32.2265625
1.74609375,-14.6484375,-12.6953125,-17.08984375,-36.62109375
1.75,-8.7890625,-15.13671875,-18.5546875,-46.875
1.75390625,-29.78515625,-13.671875,-16.11328125,-38.0859375
1.7578125,-33.203125,-12.6953125,-19.53125,-31.25
1.76171875,-18.5546875,-20.5078125,-19.53125,-19.53125
1.765625,-9.765625,-23.92578125,-16.6015625,-14.16015625
1.76953125,-15.625,-18.5546875,-18.5546875,-25.390625
1.7734375,-28.80859375,-12.20703125,-17.578125,-24.4140625
1.77734375,-24.4140625,-3.90625,-15.625,-22.4609375
1.78125,-1.953125,-9.765625,-19.53125,-11.71875
1.78515625,-4.39453125,-8.30078125,-22.94921875,-13.18359375
1.7890625,-23.92578125,-3.41796875,-17.578125,-30.76171875
1.79296875,-15.13671875,-6.8359375,-16.6015625,-30.2734375
1.796875,-6.8359375,-11.71875,-15.13671875,-17.578125
1.80078125,-20.99609375,-14.6484375,-8.7890625,-12.20703125
1.8046875,-26.3671875,-12.6953125,-11.23046875,-13.18359375
1.80859375,-24.90234375,-12.6953125,-17.578125,-20.01953125
1.8125,-20.5078125,-19.04296875,-19.04296875,-8.7890625
1.81640625,-10.25390625,-16.6015625,-20.01953125,-4.8828125
1.8203125,-24.90234375,-34.1796875,-20.01953125,-23.4375
1.82421875,-30.2734375,-38.0859375,-15.625,-20.99609375
1.828125,-15.625,-12.20703125,-15.625,-12.6953125
1.83203125,-5.37109375,-12.20703125,-25.87890625,-17.08984375
1.8359375,-9.27734375,-17.08984375,-28.80859375,-25.87890625
1.83984375,-27.34375,-15.13671875,-19.53125,-33.69140625
1.84375,-33.69140625,-14.16015625,-19.04296875,-36.62109375
1.84765625,-20.5078125,-14.6484375,-20.5078125,-29.296875
1.8515625,-16.6015625,-21.484375,-22.94921875,-31.73828125
1.85546875,-22.4609375,-16.11328125,-30.2734375,-31.25
1.859375,-21.97265625,-28.80859375,-28.80859375,-18.06640625
1.86328125,-22.94921875,-62.5,-25.390625,-11.71875
1.8671875,-24.4140625,-34.66796875,-26.3671875,-22.94921875
1.87109375,-38.0859375,-20.01953125,-29.78515625,-36.1328125
1.875,-49.31640625,-23.4375,-32.71484375,-34.66796875
1.87890625,-32.71484375,-18.5546875,-38.57421875,-34.66796875
1.8828125,-12.20703125,-23.4375,-41.9921875,-35.64453125
1.88671875,-25.390625,-27.34375,-39.0625,-32.2265625
1.890625,-46.38671875,-26.85546875,-34.1796875,-42.96875
1.89453125,-34.1796875,-19.04296875,-31.25,-33.203125
1.8984375,-16.6015625,-26.3671875,-33.69140625,-5.37109375
1.90234375,-27.34375,-47.36328125,-35.15625,-13.671875
1.90625,-32.2265625,-38.0859375,-29.78515625,-26.3671875
1.91015625,-30.76171875,-21.97265625,-31.25,-21.97265625
1.9140625,-24.4140625,-23.4375,-39.0625,-12.20703125
1.91796875,-19.53125,-26.85546875,-42.96875,-16.6015625
1.921875,-34.1796875,-30.2734375,-48.33984375,-32.2265625
1.92578125,-41.50390625,-32.2265625,-52.24609375,-35.64453125
1.9296875,-22.94921875,-31.73828125,-48.33984375,-19.04296875
1.93359375,-7.8125,-25.390625,-41.9921875,-14.6484375
1.9375,-23.92578125,-20.01953125,-42.48046875,-28.3203125
1.94140625,-31.25,-24.90234375,-33.203125,-29.296875
1.9453125,-10.7421875,-18.5546875,-29.78515625,-32.2265625
1.94921875,-17.578125,-16.6015625,-37.59765625,-51.26953125
1.953125,-33.69140625,-24.4140625,-33.69140625,-47.8515625
1.95703125,-33.69140625,-25.390625,-32.71484375,-33.69140625
1.9609375,-38.57421875,-30.76171875,-32.71484375,-24.90234375
1.96484375,-20.01953125,-30.76171875,-35.15625,-25.390625
1.96875,-18.06640625,-28.3203125,-41.9921875,-29.296875
1.97265625,-38.57421875,-28.3203125,-40.52734375,-27.34375
1.9765625,-36.62109375,-26.85546875,-40.0390625,-22.4609375
1.98046875,-20.01953125,-25.390625,-38.57421875,-27.34375
1.984375,-6.34765625,-20.5078125,-35.64453125,-38.0859375
1.98828125,-26.85546875,-21.484375,-38.0859375,-31.25
1.9921875,-38.57421875,-30.2734375,-37.59765625,-35.64453125
1.99609375,-28.3203125,-31.73828125,-39.0625,-43.9453125
2.0,-23.4375,-27.34375,-44.43359375,-43.45703125
2.00390625,-22.94921875,-28.80859375,-44.43359375,-40.52734375
2.0078125,-43.9453125,-28.80859375,-41.9921875,-47.36328125
2.01171875,-42.48046875,-23.92578125,-40.0390625,-39.0625
2.015625,-10.25390625,-25.390625,-35.64453125,-19.53125
2.01953125,-22.4609375,-27.83203125,-37.109375,-23.4375
2.0234375,-44.921875,-25.390625,-38.57421875,-32.71484375
2.02734375,-30.2734375,-24.4140625,-37.59765625,-22.94921875
2.03125,-8.7890625,-24.4140625,-34.1796875,-12.20703125
2.03515625,-10.25390625,-19.04296875,-27.34375,-18.5546875
2.0390625,-20.01953125,-17.08984375,-30.2734375,-21.484375
2.04296875,-14.16015625,-19.53125,-27.34375,-7.32421875
2.046875,-11.23046875,-23.92578125,-22.4609375,-3.90625
2.05078125,-22.4609375,-28.3203125,-28.3203125,-20.99609375
2.0546875,-46.875,-28.80859375,-34.1796875,-32.71484375
2.05859375,-56.640625,-27.83203125,-31.73828125,-35.15625
2.0625,-31.73828125,-16.6015625,-28.3203125,-34.1796875
2.06640625,-21.97265625,-15.625,-30.76171875,-19.53125
2.0703125,-27.34375,-20.01953125,-22.94921875,-15.13671875
2.07421875,-21.97265625,-13.671875,-19.04296875,-22.4609375
2.078125,-9.765625,-9.765625,-17.08984375,-17.08984375
2.08203125,-5.37109375,-11.23046875,-12.6953125,-15.625
2.0859375,-15.625,-19.04296875,-13.671875,-17.08984375
2.08984375,-15.13671875,-20.01953125,-10.25390625,-21.97265625
2.09375,-13.18359375,-21.484375,-12.20703125,-20.01953125
2.09765625,2.44140625,-25.390625,-14.6484375,-4.8828125
2.1015625,-15.13671875,-18.06640625,-23.92578125,-11.23046875
2.10546875,-41.9921875,-21.484375,-28.3203125,-25.87890625
2.109375,-37.109375,-34.1796875,-19.53125,-20.99609375
2.11328125,-23.92578125,-34.1796875,-22.4609375,-16.6015625
2.1171875,-8.7890625,-27.83203125,-23.92578125,-18.5546875
2.12109375,-40.52734375,-33.203125,-23.4375,-29.78515625
2.125,-51.7578125,-37.59765625,-27.34375,-34.66796875
2.12890625,-18.5546875,-30.2734375,-26.85546875,-37.59765625
2.1328125,-2.44140625,-26.85546875,-27.34375,-26.3671875
2.13671875,-25.390625,-29.296875,-27.83203125,-27.83203125
2.140625,-49.8046875,-30.2734375,-25.87890625,-39.55078125
2.14453125,-34.1796875,-24.4140625,-22.94921875,-19.04296875
2.1484375,-12.20703125,-28.3203125,-24.4140625,-29.296875
2.15234375,-12.6953125,-34.66796875,-33.69140625,-44.43359375
2.15625,-29.296875,-29.78515625,-34.66796875,-41.50390625
2.16015625,-26.85546875,-28.80859375,-27.83203125,-33.69140625
2.1640625,-12.6953125,-28.3203125,-28.80859375,-20.5078125
2.16796875,-15.625,-27.34375,-33.69140625,-33.69140625
2.171875,-41.50390625,-26.85546875,-36.1328125,-53.22265625
2.17578125,-47.36328125,-22.94921875,-27.83203125,-38.57421875
2.1796875,-21.484375,-33.69140625,-29.78515625,-19.53125
2.18359375,-10.25390625,-55.17578125,-34.1796875,-19.04296875
2.1875,-29.296875,-39.0625,-34.66796875,-18.5546875
2.19140625,-32.71484375,-29.78515625,-38.57421875,-18.06640625
2.1953125,-18.06640625,-25.87890625,-36.1328125,-27.34375
2.19921875,-7.32421875,-22.4609375,-30.2734375,-26.85546875
2.203125,-12.6953125,-21.97265625,-27.83203125,-34.66796875
2.20703125,-34.1796875,-22.4609375,-32.2265625,-48.828125
2.2109375,-43.9453125,-29.296875,-36.62109375,-44.921875
2.21484375,-30.76171875,-31.25,-28.3203125,-32.2265625
2.21875,-11.71875,-33.69140625,-21.97265625,-22.4609375
2.22265625,-18.5546875,-35.15625,-26.85546875,-39.55078125
2.2265625,-31.25,-35.64453125,-30.76171875,-41.015625
2.23046875,-27.34375,-35.15625,-26.85546875,-25.87890625
2.234375,-27.34375,-39.0625,-34.1796875,-38.57421875
2.23828125,-38.0859375,-46.38671875,-39.0625,-41.9921875
2.2421875,-30.2734375,-51.26953125,-31.25,-23.92578125
2.24609375,-12.20703125,-41.50390625,-30.2734375,-20.01953125
2.25,-16.11328125,-24.90234375,-30.76171875,-24.4140625
2.25390625,-30.2734375,-23.4375,-29.78515625,-14.6484375
2.2578125,-26.85546875,-24.4140625,-36.62109375,-14.6484375
2.26171875,-23.4375,-22.94921875,-34.1796875,-18.5546875
2.265625,-14.6484375,-26.85546875,-29.78515625,-15.13671875
2.26953125,-21.484375,-29.296875,-32.2265625,-15.13671875
2.2734375,-45.8984375,-29.78515625,-31.73828125,-24.90234375
2.27734375,-23.92578125,-27.34375,-33.203125,-21.97265625
2.28125,2.44140625,-37.59765625,-35.15625,-23.92578125
2.28515625,-16.11328125,-43.45703125,-36.1328125,-35.64453125
2.2890625,-41.015625,-29.296875,-35.64453125,-38.0859375
2.29296875,-42.96875,-27.34375,-33.203125,-32.71484375
2.296875,-30.2734375,-29.296875,-40.52734375,-30.76171875
2.30078125,-25.87890625,-33.203125,-39.55078125,-34.66796875
2.3046875,-25.87890625,-35.64453125,-37.109375,-27.34375
2.30859375,-20.99609375,-35.64453125,-44.43359375,-22.4609375
2.3125,-14.6484375,-38.57421875,-44.43359375,-16.6015625
2.31640625,-20.99609375,-38.57421875,-39.55078125,-26.3671875
2.3203125,-21.97265625,-36.62109375,-39.0625,-37.109375
2.32421875,-41.015625,-39.0625,-38.57421875,-32.2265625
2.328125,-47.8515625,-36.62109375,-29.296875,-27.83203125
2.33203125,-8.30078125,-31.73828125,-27.34375,-21.97265625
2.3359375,-12.6953125,-29.78515625,-30.76171875,-20.99609375
2.33984375,-52.734375,-31.73828125,-28.80859375,-24.4140625
2.34375,-52.24609375,-28.3203125,-30.76171875,-21.97265625
2.34765625,-32.2265625,-30.76171875,-35.64453125,-21.97265625
2.3515625,-32.71484375,-33.69140625,-33.203125,-30.76171875
2.35546875,-42.48046875,-33.203125,-28.80859375,-43.45703125
2.359375,-44.43359375,-37.59765625,-34.1796875,-44.921875
2.36328125,-34.66796875,-39.55078125,-37.59765625,-32.71484375
2.3671875,-27.34375,-41.015625,-34.1796875,-29.78515625
2.37109375,-42.96875,-40.52734375,-37.109375,-23.4375
2.375,-50.78125,-37.109375,-38.57421875,-19.53125
2.37890625,-40.0390625,-40.52734375,-37.109375,-32.2265625
2.3828125,-29.296875,-50.78125,-37.109375,-34.1796875
2.38671875,-28.3203125,-39.0625,-31.73828125,-30.76171875
2.390625,-54.19921875,-33.203125,-29.296875,-37.109375
2.39453125,-59.08203125,-40.0390625,-40.52734375,-35.15625
2.3984375,-35.64453125,-39.55078125,-44.921875,-33.69140625
2.40234375,-32.71484375,-38.57421875,-35.64453125,-35.15625
2.40625,-41.9921875,-31.25,-34.66796875,-37.109375
2.41015625,-32.2265625,-23.4375,-28.80859375,-23.4375
2.4140625,-21.484375,-24.4140625,-26.3671875,-15.13671875
2.41796875,-20.5078125,-24.90234375,-29.78515625,-24.90234375
2.421875,-28.80859375,-37.59765625,-22.4609375,-23.92578125
2.42578125,-41.9921875,-33.203125,-21.97265625,-29.78515625
2.4296875,-35.64453125,-17.08984375,-30.2734375,-29.78515625
2.43359375,-26.85546875,-19.04296875,-27.83203125,-23.92578125
2.4375,-53.22265625,-17.578125,-17.578125,-28.3203125
2.44140625,-58.59375,-22.4609375,-24.4140625,-17.08984375
2.4453125,-38.0859375,-23.92578125,-26.3671875,-9.27734375
2.44921875,-38.0859375,-28.3203125,-29.78515625,-25.390625
2.453125,-63.96484375,-36.62109375,-34.1796875,-48.828125
2.45703125,-77.63671875,-31.25,-25.390625,-55.17578125
2.4609375,-67.87109375,-39.55078125,-23.4375,-48.828125
2.46484375,-69.3359375,-51.26953125,-22.94921875,-52.734375
2.46875,-75.1953125,-45.41015625,-20.5078125,-65.4296875
2.47265625,-79.1015625,-41.50390625,-19.53125,-59.08203125
2.4765625,-76.66015625,-39.55078125,-17.08984375,-41.50390625
2.48046875,-71.2890625,-42.48046875,-22.4609375,-34.1796875
2.484375,-53.7109375,-38.57421875,-26.85546875,-35.64453125
2.48828125,-50.29296875,-30.2734375,-23.92578125,-35.15625
2.4921875,-43.9453125,-26.85546875,-19.53125,-25.390625
2.49609375,-22.4609375,-26.3671875,-19.04296875,-20.01953125
2.5,-34.66796875,-32.2265625,-23.4375,-31.25
2.50390625,-57.6171875,-38.0859375,-23.4375,-45.8984375
2.5078125,-62.98828125,-41.50390625,-18.5546875,-50.78125
2.51171875,-48.828125,-44.921875,-17.08984375,-39.55078125
2.515625,-27.83203125,-35.64453125,-16.6015625,-25.87890625
2.51953125,-33.69140625,-45.8984375,-12.6953125,-21.484375
2.5234375,-43.9453125,-60.546875,-16.6015625,-23.92578125
2.52734375,-42.96875,-36.62109375,-18.06640625,-20.5078125
2.53125,-18.06640625,-22.94921875,-20.99609375,-13.18359375
2.53515625,-22.94921875,-33.203125,-26.85546875,-23.92578125
2.5390625,-57.12890625,-43.45703125,-27.34375,-53.22265625
2.54296875,-54.19921875,-46.875,-28.80859375,-62.01171875
2.546875,-37.59765625,-40.52734375,-35.64453125,-42.96875
2.55078125,-41.015625,-29.78515625,-40.0390625,-38.0859375
2.5546875,-49.31640625,-29.296875,-40.0390625,-47.36328125
2.55859375,-51.26953125,-36.62109375,-43.45703125,-41.50390625
2.5625,-36.1328125,-50.78125,-37.59765625,-40.52734375
2.56640625,-24.4140625,-47.36328125,-31.25,-47.8515625
2.5703125,-40.0390625,-33.203125,-29.296875,-45.41015625
2.57421875,-49.31640625,-33.69140625,-28.3203125,-33.203125
2.578125,-31.25,-34.66796875,-27.83203125,-18.5546875
2.58203125,-27.34375,-38.57421875,-24.90234375,-22.4609375
2.5859375,-29.296875,-39.0625,-22.4609375,-39.0625
2.58984375,-25.390625,-31.25,-18.5546875,-29.78515625
2.59375,-18.5546875,-25.87890625,-7.8125,-6.34765625
2.59765625,3.41796875,-21.484375,-0.9765625,3.90625
2.6015625,1.953125,-14.16015625,-3.90625,11.23046875
2.60546875,-28.80859375,-23.4375,-15.13671875,-17.578125
2.609375,-27.34375,-31.25,-14.6484375,-13.18359375
2.61328125,-11.23046875,-26.3671875,-6.8359375,5.37109375
2.6171875,-10.25390625,-20.99609375,-0.9765625,9.27734375
2.62109375,-4.39453125,-19.04296875,4.39453125,7.8125
2.625,-8.30078125,-15.13671875,0.9765625,0.0
2.62890625,-2.44140625,-9.765625,-4.39453125,3.41796875
2.6328125,6.34765625,-9.765625,-10.25390625,-3.41796875
2.63671875,-11.23046875,-14.6484375,-9.765625,-7.32421875
2.640625,-26.85546875,-9.27734375,-11.23046875,-7.32421875
2.64453125,-12.6953125,-1.953125,-6.8359375,-0.9765625
2.6484375,12.6953125,-4.39453125,-0.9765625,0.9765625
2.65234375,-0.9765625,-8.30078125,-4.39453125,-6.8359375
2.65625,-19.04296875,-4.8828125,-2.44140625,1.953125
2.66015625,3.90625,5.37109375,7.32421875,15.13671875
2.6640625,31.25,12.6953125,14.16015625,22.4609375
2.66796875,28.80859375,15.13671875,15.625,11.71875
2.671875,23.4375,14.6484375,17.08984375,11.23046875
2.67578125,28.3203125,19.53125,24.4140625,27.34375
2.6796875,48.828125,31.25,33.203125,37.109375
2.68359375,69.3359375,40.52734375,39.0625,34.1796875
2.6875,55.6640625,46.875,44.921875,44.43359375
2.69140625,46.38671875,49.31640625,53.22265625,55.17578125
2.6953125,65.91796875,50.29296875,61.03515625,64.94140625
2.69921875,84.47265625,62.98828125,67.3828125,83.984375
2.703125,83.984375,84.9609375,78.125,87.890625
2.70703125,80.56640625,86.42578125,95.21484375,85.44921875
2.7109375,110.83984375,95.703125,109.375,103.515625
2.71484375,135.7421875,114.2578125,114.74609375,121.09375
2.71875,131.8359375,118.1640625,119.140625,114.74609375
2.72265625,119.62890625,121.09375,124.51171875,113.28125
2.7265625,125.0,127.9296875,126.46484375,129.8828125
2.73046875,147.4609375,126.953125,128.90625,138.671875
2.734375,158.69140625,133.30078125,138.671875,135.7421875
2.73828125,130.859375,142.578125,152.34375,122.0703125
2.7421875,109.86328125,137.20703125,148.92578125,109.86328125
2.74609375,133.30078125,139.16015625,152.83203125,118.1640625
2.75,132.32421875,145.01953125,167.48046875,123.046875
2.75390625,94.7265625,139.16015625,159.1796875,104.98046875
2.7578125,60.546875,137.6953125,166.015625,75.68359375
2.76171875,57.6171875,135.7421875,171.38671875,52.734375
2.765625,64.453125,141.11328125,175.78125,41.015625
2.76953125,24.4140625,155.76171875,184.08203125,14.6484375
2.7734375,-11.23046875,155.76171875,200.1953125,-3.41796875
2.77734375,-14.16015625,156.25,217.28515625,-22.4609375
2.78125,-21.97265625,162.59765625,221.6796875,-44.43359375
2.78515625,-47.8515625,165.52734375,218.75,-57.6171875
2.7890625,-84.9609375,165.52734375,215.33203125,-83.49609375
2.79296875,-105.95703125,164.0625,212.890625,-94.23828125
2.796875,-114.2578125,167.48046875,213.8671875,-101.07421875
2.80078125,-103.02734375,171.875,221.6796875,-102.5390625
2.8046875,-113.76953125,180.6640625,228.02734375,-106.93359375
2.80859375,-131.8359375,175.78125,219.7265625,-122.55859375
2.8125,-114.74609375,165.52734375,206.54296875,-114.2578125
2.81640625,-90.33203125,154.78515625,197.75390625,-107.91015625
2.8203125,-97.16796875,151.3671875,182.6171875,-122.0703125
2.82421875,-110.83984375,151.85546875,165.52734375,-121.09375
2.828125,-87.40234375,135.7421875,149.90234375,-105.95703125
2.83203125,-54.6875,130.859375,138.671875,-79.1015625
2.8359375,-49.8046875,126.46484375,120.60546875,-60.546875
2.83984375,-42.96875,116.2109375,110.3515625,-42.48046875
2.84375,-12.6953125,116.69921875,105.95703125,-16.11328125
2.84765625,23.92578125,118.65234375,104.98046875,4.39453125
2.8515625,36.62109375,117.67578125,104.00390625,25.390625
2.85546875,37.59765625,109.86328125,89.35546875,31.25
2.859375,35.15625,99.609375,78.61328125,33.203125
2.86328125,62.98828125,91.30859375,66.89453125,45.8984375
2.8671875,87.40234375,80.078125,58.59375,55.17578125
2.87109375,70.80078125,71.77734375,52.24609375,58.10546875
2.875,80.56640625,71.2890625,42.48046875,72.75390625
2.87890625,97.65625,73.2421875,36.62109375,91.796875
2.8828125,106.93359375,66.89453125,30.76171875,95.703125
2.88671875,108.3984375,65.91796875,28.3203125,90.33203125
2.890625,103.02734375,68.84765625,32.71484375,91.30859375
2.89453125,122.0703125,64.453125,28.3203125,103.515625
2.8984375,139.6484375,61.03515625,23.92578125,125.9765625
2.90234375,141.11328125,58.10546875,21.97265625,129.39453125
2.90625,139.6484375,56.640625,16.6015625,122.55859375
2.91015625,138.671875,53.7109375,11.23046875,128.41796875
2.9140625,149.90234375,54.19921875,14.16015625,139.6484375
2.91796875,153.3203125,50.29296875,15.625,150.390625
2.921875,138.18359375,46.38671875,8.7890625,142.578125
2.92578125,147.4609375,47.36328125,4.8828125,145.99609375
2.9296875,154.78515625,39.55078125,1.46484375,146.97265625
2.93359375,141.11328125,25.390625,-8.7890625,125.0
2.9375,126.46484375,19.53125,-18.5546875,106.93359375
2.94140625,122.0703125,20.99609375,-20.01953125,117.67578125
2.9453125,138.18359375,24.90234375,-20.5078125,136.71875
2.94921875,137.6953125,19.53125,-27.34375,125.48828125
2.953125,111.328125,8.7890625,-32.71484375,118.1640625
2.95703125,101.07421875,6.8359375,-27.34375,117.1875
2.9609375,131.34765625,18.5546875,-17.578125,98.6328125
2.96484375,141.6015625,21.484375,-19.53125,90.8203125
2.96875,106.4453125,7.32421875,-29.296875,100.09765625
2.97265625,86.9140625,1.953125,-35.15625,92.28515625
2.9765625,89.84375,-6.8359375,-35.64453125,86.42578125
2.98046875,96.6796875,9.27734375,-38.0859375,92.7734375
2.984375,90.8203125,22.4609375,-38.57421875,90.33203125
2.98828125,80.56640625,-3.90625,-33.69140625,85.44921875
2.9921875,75.1953125,-9.27734375,-33.69140625,77.63671875
2.99609375,82.03125,-7.8125,-28.3203125,78.125
3.0,90.33203125,-4.8828125,-30.76171875,88.37890625
3.00390625,74.70703125,-8.7890625,-41.9921875,75.68359375
3.0078125,61.5234375,-20.99609375,-45.41015625,67.3828125
3.01171875,62.98828125,-22.4609375,-41.9921875,68.359375
3.015625,56.15234375,-27.83203125,-49.8046875,50.78125
3.01953125,42.48046875,-17.08984375,-55.17578125,32.71484375
3.0234375,41.015625,-2.9296875,-46.875,38.0859375
3.02734375,57.6171875,-17.08984375,-44.43359375,50.29296875
3.03125,65.91796875,-17.08984375,-40.0390625,54.19921875
3.03515625,48.33984375,-17.578125,-34.1796875,53.22265625
3.0390625,31.25,-20.99609375,-35.64453125,46.875
3.04296875,36.1328125,-13.18359375,-34.1796875,43.45703125
3.046875,51.26953125,-23.4375,-36.62109375,40.0390625
3.05078125,41.015625,-29.78515625,-41.50390625,30.76171875
3.0546875,12.20703125,-29.78515625,-39.55078125,19.04296875
3.05859375,4.8828125,-35.64453125,-35.15625,15.13671875
3.0625,17.578125,-40.52734375,-37.59765625,21.484375
3.06640625,24.4140625,-43.45703125,-36.62109375,27.83203125
3.0703125,15.625,-41.50390625,-33.69140625,27.34375
3.07421875,-2.44140625,-41.015625,-37.59765625,19.53125
3.078125,4.39453125,-47.8515625,-33.69140625,2.44140625
3.08203125,13.18359375,-16.11328125,-27.34375,-16.6015625
3.0859375,0.0,-17.578125,-28.80859375,-24.90234375
3.08984375,-13.18359375,-50.29296875,-26.3671875,-28.80859375
3.09375,-6.8359375,-50.29296875,-12.6953125,-24.90234375
3.09765625,-0.48828125,-54.6875,-0.9765625,-17.08984375
3.1015625,-4.8828125,-53.22265625,10.7421875,-2.9296875
3.10546875,-10.25390625,-51.26953125,17.578125,-14.6484375
3.109375,-21.484375,-50.78125,21.97265625,-16.6015625
3.11328125,-9.765625,-47.36328125,29.78515625,9.27734375
3.1171875,-2.9296875,-48.33984375,30.76171875,17.08984375
3.12109375,-27.83203125,-41.50390625,31.25,5.37109375
3.125,-33.69140625,-40.52734375,26.3671875,-4.8828125
3.12890625,-16.11328125,-54.6875,18.06640625,-5.859375
3.1328125,-2.9296875,-62.01171875,10.25390625,-6.34765625
3.13671875,-21.97265625,-67.3828125,10.25390625,-18.5546875
3.140625,-43.45703125,-62.5,6.34765625,-40.0390625
3.14453125,-44.921875,-62.98828125,-1.953125,-41.50390625
3.1484375,-35.15625,-70.3125,-4.39453125,-37.109375
3.15234375,-47.8515625,-74.70703125,-11.23046875,-32.71484375
3.15625,-65.4296875,-86.9140625,-23.4375,-38.57421875
3.16015625,-53.7109375,-67.3828125,-30.76171875,-40.0390625
3.1640625,-41.9921875,-60.546875,-38.0859375,-39.55078125
3.16796875,-41.9921875,-86.42578125,-44.43359375,-60.05859375
3.171875,-62.98828125,-86.42578125,-45.41015625,-74.70703125
3.17578125,-79.1015625,-92.28515625,-48.33984375,-72.75390625
3.1796875,-66.40625,-85.44921875,-51.7578125,-57.6171875
3.18359375,-55.17578125,-83.984375,-59.08203125,-59.5703125
3.1875,-74.70703125,-104.98046875,-63.96484375,-75.1953125
3.19140625,-90.33203125,-100.5859375,-61.5234375,-89.35546875
3.1953125,-82.03125,-95.703125,-52.24609375,-74.21875
3.19921875,-61.03515625,-93.75,-50.29296875,-54.6875
3.203125,-68.84765625,-84.9609375,-53.7109375,-76.171875
3.20703125,-98.14453125,-82.51953125,-59.08203125,-94.23828125
3.2109375,-95.703125,-81.54296875,-66.89453125,-84.47265625
3.21484375,-62.98828125,-80.56640625,-61.5234375,-76.171875
3.21875,-56.640625,-75.68359375,-55.17578125,-74.70703125
3.22265625,-77.63671875,-55.17578125,-51.7578125,-86.42578125
3.2265625,-80.56640625,-60.546875,-52.734375,-83.0078125
3.23046875,-56.640625,-71.2890625,-45.8984375,-65.91796875
3.234375,-48.828125,-67.87109375,-42.96875,-54.19921875
3.23828125,-86.9140625,-75.1953125,-50.29296875,-66.40625
3.2421875,-88.8671875,-75.1953125,-50.29296875,-82.03125
3.24609375,-57.6171875,-74.21875,-48.33984375,-63.4765625
3.25,-49.8046875,-75.1953125,-46.38671875,-55.6640625
3.25390625,-69.3359375,-71.77734375,-48.828125,-73.2421875
3.2578125,-75.68359375,-79.58984375,-51.26953125,-73.73046875
3.26171875,-55.17578125,-52.24609375,-45.41015625,-55.17578125
3.265625,-48.33984375,-42.48046875,-46.38671875,-63.4765625
3.26953125,-72.265625,-79.58984375,-53.22265625,-97.16796875
3.2734375,-86.9140625,-88.37890625,-48.828125,-103.515625
3.27734375,-63.96484375,-79.1015625,-43.9453125,-70.80078125
3.28125,-52.24609375,-66.89453125,-44.43359375,-50.78125
3.28515625,-67.87109375,-64.94140625,-40.52734375,-52.24609375
3.2890625,-69.82421875,-66.89453125,-34.66796875,-49.31640625
3.29296875,-60.05859375,-67.3828125,-41.50390625,-49.31640625
3.296875,-47.8515625,-64.453125,-44.43359375,-53.7109375
3.30078125,-49.8046875,-63.4765625,-43.9453125,-58.59375
3.3046875,-62.98828125,-64.453125,-48.33984375,-68.359375
3.30859375,-59.5703125,-62.01171875,-49.31640625,-59.08203125
3.3125,-43.45703125,-60.05859375,-41.015625,-45.41015625
3.31640625,-41.015625,-66.40625,-36.1328125,-52.734375
3.3203125,-44.43359375,-48.828125,-41.015625,-56.15234375
3.32421875,-57.12890625,-38.0859375,-46.38671875,-54.6875
3.328125,-59.08203125,-64.453125,-51.26953125,-61.5234375
3.33203125,-49.31640625,-76.66015625,-53.7109375,-51.26953125
3.3359375,-49.8046875,-81.54296875,-59.08203125,-51.26953125
3.33984375,-62.01171875,-76.171875,-58.10546875,-68.84765625
3.34375,-61.5234375,-76.171875,-53.7109375,-58.10546875
3.34765625,-39.55078125,-76.171875,-57.12890625,-48.828125
3.3515625,-45.41015625,-71.77734375,-60.05859375,-59.5703125
3.35546875,-74.70703125,-78.125,-57.6171875,-64.94140625
3.359375,-77.63671875,-65.4296875,-59.5703125,-63.4765625
3.36328125,-64.453125,-48.33984375,-71.77734375,-50.29296875
3.3671875,-67.3828125,-71.2890625,-75.68359375,-66.40625
3.37109375,-80.56640625,-85.44921875,-78.61328125,-89.84375
3.375,-91.796875,-86.9140625,-83.984375,-78.61328125
3.37890625,-83.49609375,-87.40234375,-80.078125,-76.171875
3.3828125,-65.4296875,-88.37890625,-76.66015625,-80.56640625
3.38671875,-75.1953125,-93.26171875,-79.58984375,-77.63671875
3.390625,-93.75,-89.84375,-81.54296875,-84.47265625
3.39453125,-92.7734375,-90.33203125,-79.1015625,-84.47265625
3.3984375,-70.3125,-97.65625,-77.1484375,-73.2421875
3.40234375,-73.2421875,-64.94140625,-71.77734375,-67.87109375
3.40625,-103.515625,-71.2890625,-71.77734375,-71.2890625
3.41015625,-88.37890625,-95.703125,-85.44921875,-78.61328125
3.4140625,-55.17578125,-87.40234375,-88.37890625,-70.80078125
3.41796875,-68.359375,-91.796875,-82.03125,-81.54296875
3.421875,-109.86328125,-93.26171875,-85.9375,-104.00390625
3.42578125,-113.28125,-101.07421875,-95.21484375,-92.7734375
3.4296875,-90.8203125,-102.5390625,-96.6796875,-87.890625
3.43359375,-82.03125,-105.46875,-97.16796875,-86.9140625
3.4375,-88.37890625,-114.2578125,-99.12109375,-83.984375
3.44140625,-96.19140625,-105.46875,-99.609375,-95.703125
3.4453125,-86.9140625,-103.02734375,-95.703125,-98.14453125
3.44921875,-74.21875,-104.4921875,-90.8203125,-98.14453125
3.453125,-81.0546875,-97.65625,-83.49609375,-93.75
3.45703125,-84.9609375,-98.6328125,-81.0546875,-84.9609375
3.4609375,-83.49609375,-83.984375,-91.30859375,-79.58984375
3.46484375,-69.3359375,-83.0078125,-89.84375,-87.890625
3.46875,-76.66015625,-97.16796875,-84.47265625,-87.890625
3.47265625,-94.7265625,-95.21484375,-82.03125,-76.171875
3.4765625,-91.30859375,-100.5859375,-75.1953125,-72.75390625
3.48046875,-79.58984375,-99.12109375,-76.66015625,-73.73046875
3.484375,-70.3125,-96.19140625,-77.1484375,-71.77734375
3.48828125,-88.37890625,-96.6796875,-82.51953125,-88.37890625
3.4921875,-97.16796875,-99.12109375,-86.42578125,-111.328125
3.49609375,-75.1953125,-107.91015625,-78.61328125,-91.30859375
3.5,-77.1484375,-85.44921875,-82.51953125,-81.0546875
3.50390625,-88.37890625,-59.08203125,-92.28515625,-94.23828125
3.5078125,-100.09765625,-92.28515625,-94.7265625,-89.84375
3.51171875,-99.609375,-106.93359375,-90.33203125,-83.984375
3.515625,-76.171875,-101.07421875,-85.44921875,-78.125
3.51953125,-86.9140625,-101.5625,-84.47265625,-86.9140625
3.5234375,-99.609375,-97.16796875,-83.0078125,-95.703125
3.52734375,-101.07421875,-98.14453125,-85.9375,-89.35546875
3.53125,-85.9375,-102.5390625,-90.33203125,-88.37890625
3.53515625,-88.37890625,-104.98046875,-92.7734375,-96.6796875
3.5390625,-102.5390625,-101.5625,-97.16796875,-104.00390625
3.54296875,-98.6328125,-77.1484375,-97.65625,-91.30859375
3.546875,-94.7265625,-87.40234375,-93.75,-87.40234375
3.55078125,-92.7734375,-107.421875,-89.84375,-98.6328125
3.5546875,-99.12109375,-107.91015625,-84.47265625,-94.7265625
3.55859375,-101.5625,-109.375,-89.84375,-94.23828125
3.5625,-92.7734375,-103.02734375,-91.30859375,-92.7734375
3.56640625,-80.56640625,-103.02734375,-89.84375,-92.28515625
3.5703125,-92.7734375,-99.609375,-92.7734375,-100.5859375
3.57421875,-105.95703125,-101.07421875,-94.23828125,-93.26171875
3.578125,-96.19140625,-104.4921875,-95.703125,-79.1015625
3.58203125,-83.984375,-96.6796875,-100.5859375,-86.9140625
3.5859375,-94.7265625,-103.515625,-100.5859375,-97.16796875
3.58984375,-107.421875,-106.93359375,-95.21484375,-94.23828125
3.59375,-112.79296875,-98.6328125,-88.8671875,-95.703125
3.59765625,-100.5859375,-102.05078125,-91.796875,-88.8671875
3.6015625,-89.35546875,-83.984375,-88.8671875,-79.1015625
3.60546875,-114.2578125,-86.9140625,-89.84375,-95.21484375
3.609375,-127.44140625,-111.328125,-100.5859375,-99.12109375
3.61328125,-104.00390625,-111.81640625,-100.5859375,-92.7734375
3.6171875,-97.16796875,-115.72265625,-104.00390625,-104.00390625
3.62109375,-113.28125,-113.76953125,-103.02734375,-112.3046875
3.625,-108.88671875,-103.515625,-98.14453125,-111.81640625
3.62890625,-87.890625,-102.05078125,-91.796875,-106.4453125
3.6328125,-64.453125,-104.98046875,-89.84375,-96.6796875
3.63671875,-84.47265625,-106.4453125,-94.23828125,-91.796875
3.640625,-115.234375,-87.890625,-94.7265625,-95.703125
3.64453125,-96.6796875,-77.63671875,-93.75,-89.35546875
3.6484375,-80.56640625,-97.65625,-98.14453125,-77.1484375
3.65234375,-80.56640625,-95.21484375,-97.16796875,-73.2421875
3.65625,-89.35546875,-90.33203125,-94.23828125,-89.35546875
3.66015625,-89.35546875,-90.33203125,-93.26171875,-100.5859375
3.6640625,-87.890625,-90.8203125,-90.8203125,-94.7265625
3.66796875,-94.23828125,-91.796875,-92.7734375,-95.703125
3.671875,-90.8203125,-87.40234375,-95.21484375,-84.47265625
3.67578125,-87.890625,-91.30859375,-94.23828125,-81.0546875
3.6796875,-79.1015625,-81.54296875,-92.7734375,-84.9609375
3.68359375,-71.2890625,-60.546875,-92.28515625,-71.77734375
3.6875,-97.16796875,-82.03125,-95.21484375,-78.125
3.69140625,-103.515625,-92.28515625,-92.28515625,-82.51953125
3.6953125,-87.890625,-87.40234375,-83.49609375,-81.0546875
3.69921875,-82.03125,-85.44921875,-87.40234375,-82.03125
3.703125,-83.0078125,-78.125,-93.26171875,-79.58984375
3.70703125,-83.0078125,-82.03125,-84.47265625,-83.49609375
3.7109375,-83.984375,-87.890625,-80.56640625,-85.9375
3.71484375,-74.21875,-87.40234375,-82.03125,-82.03125
3.71875,-77.63671875,-90.33203125,-83.0078125,-90.33203125
3.72265625,-100.09765625,-86.42578125,-80.078125,-93.26171875
3.7265625,-103.515625,-90.8203125,-83.984375,-99.609375
3.73046875,-83.984375,-92.7734375,-84.9609375,-94.7265625
3.734375,-76.66015625,-90.33203125,-83.0078125,-83.49609375
3.73828125,-89.35546875,-87.40234375,-83.984375,-83.0078125
3.7421875,-98.14453125,-64.94140625,-78.125,-76.171875
3.74609375,-88.8671875,-70.3125,-72.265625,-73.73046875
3.75,-70.80078125,-85.44921875,-71.2890625,-70.3125
3.75390625,-76.66015625,-81.0546875,-73.2421875,-76.171875
3.7578125,-90.8203125,-77.63671875,-72.265625,-83.0078125
3.76171875,-88.8671875,-77.1484375,-75.68359375,-83.0078125
3.765625,-74.70703125,-74.70703125,-76.66015625,-78.125
3.76953125,-75.1953125,-76.171875,-73.73046875,-81.0546875
3.7734375,-84.9609375,-70.3125,-72.265625,-90.8203125
3.77734375,-82.51953125,-73.2421875,-67.87109375,-79.1015625
3.78125,-79.58984375,-62.01171875,-71.77734375,-76.171875
3.78515625,-81.54296875,-55.6640625,-75.68359375,-79.58984375
3.7890625,-95.21484375,-78.61328125,-72.75390625,-74.70703125
3.79296875,-93.75,-75.1953125,-72.75390625,-80.56640625
3.796875,-67.87109375,-75.1953125,-71.2890625,-73.73046875
3.80078125,-62.98828125,-78.125,-66.89453125,-61.03515625
3.8046875,-67.87109375,-69.82421875,-64.453125,-73.2421875
3.80859375,-69.3359375,-66.89453125,-64.453125,-76.66015625
3.8125,-65.4296875,-64.94140625,-65.91796875,-62.01171875
3.81640625,-59.5703125,-68.84765625,-65.91796875,-62.5
3.8203125,-65.91796875,-57.6171875,-66.40625,-63.4765625
3.82421875,-63.4765625,-46.875,-62.98828125,-54.19921875
3.828125,-56.640625,-66.40625,-64.453125,-63.4765625
3.83203125,-54.6875,-69.82421875,-65.4296875,-70.3125
3.8359375,-54.6875,-68.84765625,-61.5234375,-66.40625
3.83984375,-71.2890625,-68.84765625,-63.4765625,-73.2421875
3.84375,-72.75390625,-68.359375,-68.359375,-76.66015625
3.84765625,-57.12890625,-68.359375,-72.265625,-63.4765625
3.8515625,-67.87109375,-71.2890625,-68.359375,-59.5703125
3.85546875,-83.49609375,-74.70703125,-69.3359375,-59.5703125
3.859375,-82.51953125,-66.89453125,-69.82421875,-58.59375
3.86328125,-81.0546875,-71.77734375,-71.77734375,-62.01171875
3.8671875,-74.21875,-80.078125,-76.66015625,-64.453125
3.87109375,-90.8203125,-76.66015625,-73.2421875,-76.66015625
3.875,-98.14453125,-78.125,-66.89453125,-77.1484375
3.87890625,-89.35546875,-76.171875,-69.82421875,-69.3359375
3.8828125,-68.359375,-53.7109375,-73.2421875,-64.94140625
3.88671875,-60.05859375,-55.6640625,-71.2890625,-59.08203125
3.890625,-70.3125,-71.2890625,-72.75390625,-61.5234375
3.89453125,-73.2421875,-72.265625,-76.66015625,-72.265625
3.8984375,-63.4765625,-70.3125,-77.63671875,-75.68359375
3.90234375,-69.3359375,-75.1953125,-76.66015625,-69.82421875
3.90625,-81.54296875,-76.66015625,-77.63671875,-73.73046875
3.91015625,-72.75390625,-70.3125,-73.2421875,-69.82421875
3.9140625,-65.91796875,-68.84765625,-68.84765625,-63.96484375
3.91796875,-65.4296875,-74.21875,-69.3359375,-62.98828125
3.921875,-69.3359375,-62.5,-68.359375,-69.3359375
3.92578125,-78.125,-62.98828125,-64.94140625,-76.66015625
3.9296875,-67.87109375,-71.77734375,-64.94140625,-70.80078125
3.93359375,-57.12890625,-70.80078125,-72.265625,-67.87109375
3.9375,-74.70703125,-71.2890625,-73.2421875,-74.70703125
3.94140625,-83.49609375,-69.82421875,-69.82421875,-71.77734375
3.9453125,-70.80078125,-75.68359375,-71.77734375,-58.10546875
3.94921875,-65.91796875,-82.03125,-75.1953125,-57.12890625
3.953125,-74.21875,-80.56640625,-74.70703125,-69.82421875
3.95703125,-95.703125,-77.63671875,-77.63671875,-74.21875
3.9609375,-90.8203125,-78.61328125,-83.49609375,-65.91796875
3.96484375,-76.171875,-82.03125,-84.9609375,-67.3828125
3.96875,-79.1015625,-81.54296875,-83.0078125,-71.2890625
3.97265625,-103.02734375,-81.54296875,-82.03125,-74.70703125
3.9765625,-100.5859375,-87.40234375,-87.890625,-76.66015625
3.98046875,-79.58984375,-90.8203125,-88.37890625,-78.61328125
3.984375,-79.1015625,-91.30859375,-86.42578125,-82.51953125
3.98828125,-93.26171875,-97.16796875,-93.75,-88.8671875
3.9921875,-105.46875,-97.16796875,-94.7265625,-95.21484375
3.99609375,-93.75,-93.26171875,-88.37890625,-83.49609375
4.0,-74.70703125,-86.42578125,-83.49609375,-79.1015625
4.00390625,-80.078125,-83.984375,-83.49609375,-78.125
4.0078125,-104.98046875,-89.35546875,-86.42578125,-81.0546875
4.01171875,-91.796875,-93.75,-86.42578125,-90.33203125
4.015625,-61.03515625,-98.14453125,-81.0546875,-83.0078125
4.01953125,-73.73046875,-93.75,-81.0546875,-71.77734375
4.0234375,-105.95703125,-78.61328125,-82.03125,-77.63671875
4.02734375,-100.5859375,-88.8671875,-81.54296875,-80.078125
4.03125,-85.9375,-101.5625,-83.984375,-84.47265625
4.03515625,-92.28515625,-99.609375,-88.37890625,-94.7265625
4.0390625,-100.09765625,-96.6796875,-90.33203125,-96.19140625
4.04296875,-106.93359375,-99.12109375,-89.84375,-103.02734375
4.046875,-88.37890625,-92.28515625,-88.37890625,-96.19140625
4.05078125,-84.47265625,-92.7734375,-90.8203125,-88.37890625
4.0546875,-114.2578125,-104.00390625,-98.6328125,-105.46875
4.05859375,-111.328125,-104.00390625,-94.23828125,-102.05078125
4.0625,-98.14453125,-80.56640625,-90.8203125,-88.8671875
4.06640625,-107.421875,-83.49609375,-91.30859375,-87.890625
4.0703125,-107.421875,-98.14453125,-90.33203125,-84.9609375
4.07421875,-95.703125,-93.26171875,-84.9609375,-82.51953125
4.078125,-79.1015625,-89.84375,-78.61328125,-60.546875
4.08203125,-74.70703125,-88.37890625,-78.61328125,-57.12890625
4.0859375,-82.51953125,-96.19140625,-76.66015625,-67.3828125
4.08984375,-84.47265625,-92.28515625,-77.63671875,-64.94140625
4.09375,-95.703125,-83.984375,-83.984375,-81.0546875
4.09765625,-91.796875,-88.37890625,-83.984375,-82.51953125
4.1015625,-79.1015625,-69.3359375,-85.44921875,-76.171875
4.10546875,-93.75,-59.08203125,-87.40234375,-83.0078125
4.109375,-111.81640625,-79.58984375,-110.3515625,-91.30859375
4.11328125,-91.796875,-82.03125,-141.6015625,-87.40234375
4.1171875,-74.70703125,-82.03125,-156.25,-96.6796875
4.12109375,-86.42578125,-77.63671875,-168.9453125,-103.515625
4.125,-86.9140625,-80.56640625,-167.48046875,-91.30859375
4.12890625,-80.078125,-85.9375,-166.9921875,-80.56640625
4.1328125,-69.3359375,-83.49609375,-166.50390625,-71.2890625
4.13671875,-71.2890625,-80.078125,-149.90234375,-64.94140625
4.140625,-90.8203125,-78.61328125,-146.484375,-72.265625
4.14453125,-73.2421875,-71.77734375,-150.390625,-78.125
4.1484375,-41.9921875,-66.89453125,-144.53125,-68.359375
4.15234375,-52.734375,-66.89453125,-140.625,-78.61328125
4.15625,-78.125,-68.359375,-137.6953125,-86.9140625
4.16015625,-78.125,-65.91796875,-130.859375,-68.359375
4.1640625,-53.22265625,-64.94140625,-126.46484375,-65.91796875
4.16796875,-58.10546875,-71.2890625,-129.8828125,-67.87109375
4.171875,-70.80078125,-73.73046875,-127.9296875,-61.03515625
4.17578125,-70.3125,-73.2421875,-123.046875,-66.89453125
4.1796875,-64.94140625,-78.125,-125.9765625,-68.84765625
4.18359375,-53.7109375,-81.54296875,-125.48828125,-70.80078125
4.1875,-65.91796875,-78.61328125,-119.140625,-74.70703125
4.19140625,-84.47265625,-68.84765625,-122.0703125,-71.2890625
4.1953125,-66.89453125,-64.94140625,-119.62890625,-60.546875
4.19921875,-34.66796875,-69.3359375,-111.328125,-51.26953125
4.203125,-52.24609375,-67.87109375,-108.3984375,-62.5
4.20703125,-84.47265625,-69.3359375,-110.3515625,-63.96484375
4.2109375,-72.75390625,-66.89453125,-111.328125,-56.640625
4.21484375,-49.8046875,-66.40625,-105.46875,-53.7109375
4.21875,-54.6875,-73.73046875,-104.00390625,-67.3828125
4.22265625,-63.96484375,-62.98828125,-99.609375,-71.2890625
4.2265625,-69.82421875,-53.22265625,-94.7265625,-59.5703125
4.23046875,-44.43359375,-58.59375,-96.19140625,-45.41015625
4.234375,-29.296875,-60.546875,-95.703125,-38.57421875
4.23828125,-57.12890625,-47.8515625,-91.30859375,-46.38671875
4.2421875,-66.89453125,-52.24609375,-91.796875,-46.875
4.24609375,-59.08203125,-67.3828125,-87.890625,-44.43359375
4.25,-55.17578125,-62.01171875,-79.58984375,-52.24609375
4.25390625,-52.734375,-53.22265625,-75.68359375,-56.15234375
4.2578125,-62.5,-55.17578125,-79.58984375,-61.03515625
4.26171875,-61.03515625,-56.640625,-81.0546875,-58.59375
4.265625,-35.64453125,-54.6875,-78.61328125,-56.15234375
4.26953125,-41.015625,-54.19921875,-70.80078125,-47.36328125
4.2734375,-57.12890625,-50.29296875,-66.89453125,-34.66796875
4.27734375,-55.6640625,-47.36328125,-68.359375,-39.55078125
4.28125,-48.828125,-48.828125,-67.87109375,-36.62109375
4.28515625,-51.26953125,-51.7578125,-68.359375,-34.66796875
4.2890625,-71.2890625,-55.6640625,-65.91796875,-40.0390625
4.29296875,-64.453125,-48.828125,-65.4296875,-35.15625
4.296875,-44.43359375,-47.36328125,-72.75390625,-43.45703125
4.30078125,-51.26953125,-55.6640625,-75.1953125,-67.3828125
4.3046875,-50.29296875,-51.26953125,-72.75390625,-71.77734375
4.30859375,-49.8046875,-46.38671875,-67.3828125,-54.6875
4.3125,-46.38671875,-44.921875,-53.7109375,-41.50390625
4.31640625,-32.71484375,-42.48046875,-57.12890625,-45.41015625
4.3203125,-36.62109375,-38.57421875,-62.98828125,-43.45703125
4.32421875,-57.12890625,-34.66796875,-52.734375,-29.296875
4.328125,-47.36328125,-36.1328125,-55.6640625,-22.94921875
4.33203125,-9.27734375,-42.96875,-58.59375,-12.6953125
4.3359375,-28.3203125,-41.50390625,-55.17578125,-36.1328125
4.33984375,-72.265625,-43.45703125,-56.640625,-66.40625
4.34375,-62.5,-50.78125,-58.59375,-62.01171875
4.34765625,-39.0625,-41.9921875,-57.12890625,-60.05859375
4.3515625,-35.64453125,-36.1328125,-60.05859375,-53.7109375
4.35546875,-51.7578125,-36.1328125,-58.59375,-47.36328125
4.359375,-60.05859375,-38.57421875,-57.12890625,-53.22265625
4.36328125,-59.5703125,-41.015625,-62.98828125,-60.546875
4.3671875,-49.31640625,-41.50390625,-59.5703125,-69.82421875
4.37109375,-50.78125,-48.33984375,-59.5703125,-78.61328125
4.375,-67.3828125,-54.6875,-61.5234375,-70.3125
4.37890625,-47.8515625,-51.7578125,-64.453125,-50.78125
4.3828125,-28.80859375,-56.15234375,-64.94140625,-44.921875
4.38671875,-40.52734375,-55.17578125,-57.12890625,-54.6875
4.390625,-59.08203125,-49.31640625,-53.7109375,-53.7109375
4.39453125,-48.33984375,-50.78125,-57.12890625,-37.59765625
4.3984375,-24.4140625,-48.828125,-56.640625,-38.0859375
4.40234375,-48.828125,-46.38671875,-58.10546875,-51.26953125
4.40625,-66.89453125,-48.33984375,-62.98828125,-54.19921875
4.41015625,-56.15234375,-43.45703125,-59.5703125,-58.59375
4.4140625,-38.0859375,-42.48046875,-62.01171875,-56.640625
4.41796875,-38.57421875,-49.8046875,-66.89453125,-68.359375
4.421875,-61.5234375,-55.17578125,-64.94140625,-81.0546875
4.42578125,-72.265625,-53.7109375,-63.4765625,-52.734375
4.4296875,-56.15234375,-49.8046875,-62.98828125,-41.015625
4.43359375,-45.41015625,-51.26953125,-67.87109375,-53.7109375
4.4375,-49.31640625,-50.78125,-66.40625,-52.24609375
4.44140625,-71.77734375,-53.7109375,-65.4296875,-63.4765625
4.4453125,-68.84765625,-55.17578125,-69.82421875,-53.7109375
4.44921875,-44.921875,-49.31640625,-62.98828125,-38.0859375
4.453125,-54.19921875,-44.921875,-59.5703125,-51.7578125
4.45703125,-62.01171875,-41.50390625,-60.546875,-62.5
4.4609375,-52.734375,-40.0390625,-60.546875,-49.8046875
4.46484375,-23.92578125,-42.48046875,-65.4296875,-39.55078125
4.46875,-23.4375,-43.9453125,-59.08203125,-38.57421875
4.47265625,-49.31640625,-45.8984375,-54.19921875,-42.48046875
4.4765625,-46.875,-48.33984375,-57.12890625,-44.921875
4.48046875,-30.2734375,-46.38671875,-58.10546875,-37.59765625
4.484375,-33.69140625,-42.96875,-58.59375,-39.0625
4.48828125,-58.10546875,-45.8984375,-60.546875,-50.78125
4.4921875,-66.89453125,-48.828125,-62.5,-53.7109375
4.49609375,-45.8984375,-51.7578125,-60.05859375,-41.9921875
4.5,-33.69140625,-47.36328125,-54.19921875,-36.62109375
4.50390625,-53.22265625,-45.8984375,-54.6875,-50.78125
4.5078125,-68.84765625,-52.734375,-62.01171875,-65.4296875
4.51171875,-52.734375,-57.12890625,-61.03515625,-51.26953125
4.515625,-39.55078125,-61.03515625,-59.5703125,-38.57421875
4.51953125,-55.17578125,-54.19921875,-52.24609375,-55.17578125
4.5234375,-60.05859375,-39.0625,-42.48046875,-58.59375
4.52734375,-41.9921875,-37.109375,-41.015625,-30.2734375
4.53125,-20.5078125,-39.0625,-41.015625,-28.3203125
4.53515625,-27.83203125,-40.0390625,-42.96875,-52.24609375
4.5390625,-61.03515625,-41.50390625,-41.50390625,-52.24609375
4.54296875,-59.08203125,-39.0625,-36.62109375,-27.34375
4.546875,-19.04296875,-37.109375,-34.1796875,-10.25390625
4.55078125,-16.6015625,-33.69140625,-40.52734375,-28.80859375
4.5546875,-44.921875,-38.0859375,-50.29296875,-49.8046875
4.55859375,-43.9453125,-43.45703125,-56.15234375,-36.62109375
4.5625,-23.92578125,-47.8515625,-49.31640625,-12.20703125
4.56640625,0.0,-46.38671875,-41.50390625,-2.9296875
4.5703125,-8.30078125,-44.43359375,-42.96875,-15.13671875
4.57421875,-29.78515625,-46.875,-42.96875,-28.80859375
4.578125,-20.5078125,-51.7578125,-41.50390625,-18.5546875
4.58203125,-2.44140625,-49.31640625,-34.1796875,-6.8359375
4.5859375,0.9765625,-39.0625,-29.296875,-13.671875
4.58984375,-4.39453125,-36.62109375,-25.390625,-11.23046875
4.59375,-20.5078125,-39.55078125,-23.4375,-10.25390625
4.59765625,-20.5078125,-41.015625,-28.3203125,-4.8828125
4.6015625,-13.18359375,-46.38671875,-28.80859375,2.44140625
4.60546875,-37.59765625,-46.38671875,-30.2734375,-22.4609375
4.609375,-56.15234375,-42.96875,-35.15625,-33.203125
4.61328125,-30.76171875,-43.9453125,-35.15625,-16.6015625
4.6171875,-8.30078125,-37.109375,-25.390625,-7.32421875
4.62109375,-21.97265625,-32.2265625,-25.87890625,-15.625
4.625,-36.1328125,-31.73828125,-31.25,-22.4609375
4.62890625,-23.4375,-24.90234375,-25.87890625,-15.625
4.6328125,-2.9296875,-20.99609375,-26.85546875,-12.20703125
4.63671875,-16.11328125,-23.92578125,-27.34375,-29.78515625
4.640625,-28.3203125,-28.80859375,-20.01953125,-30.76171875
4.64453125,-23.92578125,-35.15625,-14.6484375,-23.4375
4.6484375,-23.4375,-37.59765625,-24.90234375,-27.83203125
4.65234375,-27.34375,-34.1796875,-30.2734375,-28.3203125
4.65625,-29.296875,-32.2265625,-24.4140625,-18.06640625
4.66015625,-34.1796875,-31.73828125,-29.296875,-20.01953125
4.6640625,-36.1328125,-31.73828125,-38.0859375,-22.94921875
4.66796875,-31.73828125,-31.73828125,-40.0390625,-24.90234375
4.671875,-43.9453125,-36.1328125,-39.0625,-28.3203125
4.67578125,-42.96875,-33.203125,-37.109375,-17.578125
4.6796875,-24.4140625,-30.2734375,-35.64453125,-20.5078125
4.68359375,-19.04296875,-30.2734375,-33.69140625,-21.97265625
4.6875,-28.3203125,-28.3203125,-32.71484375,-18.06640625
4.69140625,-41.9921875,-38.0859375,-34.66796875,-26.85546875
4.6953125,-37.109375,-45.41015625,-31.25,-24.90234375
4.69921875,-23.92578125,-48.33984375,-30.76171875,-16.11328125
4.703125,-38.0859375,-46.875,-36.62109375,-33.69140625
4.70703125,-45.8984375,-45.41015625,-43.9453125,-53.7109375
4.7109375,-31.73828125,-45.41015625,-44.43359375,-43.9453125
4.71484375,-24.90234375,-41.015625,-44.43359375,-24.4140625
4.71875,-33.69140625,-45.41015625,-40.52734375,-27.34375
4.72265625,-52.24609375,-50.78125,-34.1796875,-36.62109375
4.7265625,-40.52734375,-39.55078125,-35.64453125,-40.0390625
4.73046875,-23.4375,-36.1328125,-38.57421875,-38.0859375
4.734375,-31.73828125,-37.109375,-31.73828125,-36.1328125
4.73828125,-55.17578125,-35.15625,-30.2734375,-50.78125
4.7421875,-59.08203125,-38.0859375,-31.73828125,-38.57421875
4.74609375,-31.25,-36.1328125,-32.71484375,-25.87890625
4.75,-22.4609375,-35.15625,-36.1328125,-34.66796875
4.75390625,-27.83203125,-29.78515625,-36.62109375,-40.52734375
4.7578125,-34.66796875,-30.76171875,-39.55078125,-45.8984375
4.76171875,-40.0390625,-44.43359375,-35.64453125,-34.1796875
4.765625,-28.3203125,-41.50390625,-28.80859375,-25.390625
4.76953125,-44.43359375,-38.0859375,-38.0859375,-54.19921875
4.7734375,-61.5234375,-43.45703125,-45.41015625,-53.7109375
4.77734375,-43.45703125,-37.109375,-35.64453125,-23.92578125
4.78125,-19.53125,-30.2734375,-28.3203125,-13.671875
4.78515625,-25.87890625,-36.62109375,-33.69140625,-31.73828125
4.7890625,-46.875,-37.109375,-41.50390625,-56.15234375
4.79296875,-52.734375,-35.64453125,-37.59765625,-52.734375
4.796875,-35.15625,-36.1328125,-38.0859375,-38.0859375
4.80078125,-16.11328125,-41.9921875,-43.9453125,-41.50390625
4.8046875,-37.109375,-53.22265625,-37.109375,-34.66796875
4.80859375,-49.31640625,-46.875,-39.0625,-30.2734375
4.8125,-15.13671875,-35.64453125,-47.36328125,-16.6015625
4.81640625,-3.41796875,-30.76171875,-35.64453125,-2.9296875
4.8203125,-30.76171875,-33.69140625,-26.3671875,-34.1796875
4.82421875,-50.78125,-34.1796875,-27.83203125,-64.453125
4.828125,-53.22265625,-40.52734375,-32.2265625,-46.38671875
4.83203125,-32.2265625,-43.9453125,-29.296875,-20.99609375
4.8359375,-39.0625,-37.59765625,-21.97265625,-43.45703125
4.83984375,-58.10546875,-40.0390625,-16.11328125,-53.22265625
4.84375,-51.26953125,-46.38671875,-24.4140625,-43.9453125
4.84765625,-46.875,-48.33984375,-31.73828125,-37.59765625
4.8515625,-49.8046875,-50.29296875,-30.76171875,-36.62109375
4.85546875,-59.5703125,-51.26953125,-35.64453125,-49.31640625
4.859375,-63.4765625,-60.05859375,-41.50390625,-57.6171875
4.86328125,-43.45703125,-76.171875,-49.8046875,-48.828125
4.8671875,-24.90234375,-61.03515625,-49.31640625,-42.96875
4.87109375,-42.48046875,-43.9453125,-38.57421875,-49.31640625
4.875,-51.7578125,-44.43359375,-35.64453125,-41.9921875
4.87890625,-36.62109375,-44.43359375,-37.109375,-25.390625
4.8828125,-25.390625,-44.43359375,-33.69140625,-15.13671875
4.88671875,-32.2265625,-42.48046875,-35.64453125,-18.5546875
4.890625,-46.875,-43.45703125,-35.64453125,-29.78515625
4.89453125,-52.734375,-42.48046875,-34.66796875,-37.109375
4.8984375,-39.55078125,-35.64453125,-42.48046875,-29.78515625
4.90234375,-42.48046875,-45.41015625,-40.52734375,-33.203125
4.90625,-59.08203125,-49.31640625,-38.0859375,-48.828125
4.91015625,-52.734375,-43.9453125,-36.1328125,-31.73828125
4.9140625,-38.0859375,-42.48046875,-40.0390625,-30.76171875
4.91796875,-45.8984375,-45.41015625,-40.0390625,-50.29296875
4.921875,-49.8046875,-43.45703125,-27.83203125,-52.24609375
4.92578125,-38.57421875,-38.0859375,-31.25,-39.0625
4.9296875,-41.50390625,-40.0390625,-38.0859375,-30.2734375
4.93359375,-48.33984375,-45.8984375,-41.9921875,-35.64453125
4.9375,-51.7578125,-45.8984375,-49.31640625,-44.43359375
4.94140625,-62.98828125,-46.38671875,-51.26953125,-52.24609375
4.9453125,-58.59375,-53.22265625,-46.38671875,-57.6171875
4.94921875,-45.41015625,-53.22265625,-50.78125,-55.6640625
4.953125,-60.05859375,-51.7578125,-56.640625,-62.98828125
4.95703125,-69.82421875,-57.6171875,-57.12890625,-70.3125
4.9609375,-61.03515625,-43.45703125,-57.6171875,-52.734375
4.96484375,-38.0859375,-31.73828125,-55.6640625,-30.2734375
4.96875,-34.1796875,-43.9453125,-57.6171875,-38.57421875
4.97265625,-41.015625,-47.36328125,-51.26953125,-48.828125
4.9765625,-50.78125,-49.8046875,-47.36328125,-58.59375
4.98046875,-47.36328125,-46.875,-50.78125,-52.734375
4.984375,-39.55078125,-47.36328125,-47.36328125,-45.41015625
4.98828125,-43.9453125,-48.33984375,-43.45703125,-50.78125
4.9921875,-43.9453125,-47.8515625,-41.9921875,-44.43359375
4.99609375,-41.50390625,-42.96875,-41.015625,-40.0390625
5.0,-31.25,-40.0390625,-38.0859375,-31.73828125
5.00390625,-29.78515625,-45.41015625,-35.15625,-29.296875
5.0078125,-36.1328125,-38.57421875,-33.203125,-31.25
5.01171875,-27.83203125,-30.2734375,-28.3203125,-32.71484375
5.015625,-20.99609375,-27.34375,-31.25,-27.34375
5.01953125,-40.52734375,-28.80859375,-33.203125,-27.34375
5.0234375,-48.33984375,-28.80859375,-30.2734375,-39.55078125
5.02734375,-30.76171875,-24.4140625,-24.4140625,-31.25
5.03125,-10.25390625,-21.484375,-22.94921875,-15.625
5.03515625,-6.34765625,-23.92578125,-22.94921875,-19.53125
5.0390625,-16.11328125,-27.34375,-23.4375,-33.69140625
5.04296875,-24.4140625,-33.203125,-30.2734375,-28.80859375
5.046875,-29.296875,-36.1328125,-30.2734375,-15.13671875
5.05078125,-24.4140625,-26.3671875,-30.2734375,-16.11328125
5.0546875,-42.48046875,-25.390625,-33.203125,-24.90234375
5.05859375,-62.01171875,-35.15625,-40.0390625,-40.52734375
5.0625,-45.8984375,-35.64453125,-40.52734375,-32.71484375
5.06640625,-18.06640625,-29.78515625,-31.25,-20.01953125
5.0703125,-18.5546875,-28.3203125,-32.2265625,-19.04296875
5.07421875,-50.29296875,-30.2734375,-33.203125,-10.7421875
5.078125,-30.76171875,-26.85546875,-29.296875,-9.765625
5.08203125,0.48828125,-23.92578125,-25.87890625,-9.765625
5.0859375,-10.25390625,-20.5078125,-21.484375,-5.37109375
5.08984375,-32.71484375,-13.671875,-18.5546875,-12.20703125
5.09375,-33.203125,-14.6484375,-25.390625,-18.5546875
5.09765625,-8.7890625,-14.6484375,-26.85546875,-7.8125
5.1015625,-0.9765625,-17.08984375,-22.4609375,-6.34765625
5.10546875,-17.578125,-20.99609375,-18.06640625,-15.625
5.109375,-21.97265625,-14.16015625,-16.11328125,-18.5546875
5.11328125,-11.71875,-8.30078125,-17.08984375,-6.34765625
5.1171875,1.46484375,-12.20703125,-21.484375,7.8125
5.12109375,-6.8359375,-14.6484375,-22.4609375,-5.859375
5.125,-30.2734375,-9.27734375,-19.53125,-33.203125
5.12890625,-26.85546875,-14.16015625,-19.04296875,-26.85546875
5.1328125,-9.27734375,-22.4609375,-17.08984375,-13.18359375
5.13671875,-11.23046875,-14.6484375,-13.18359375,-27.34375
5.140625,-36.62109375,-20.99609375,-9.27734375,-26.3671875
5.14453125,-31.73828125,-26.3671875,-2.9296875,-9.765625
5.1484375,-8.30078125,-9.27734375,-0.9765625,-8.30078125
5.15234375,-19.53125,-6.34765625,-5.859375,-9.765625
5.15625,-48.828125,-9.765625,-9.27734375,-16.6015625
5.16015625,-49.8046875,-12.6953125,-9.27734375,-17.08984375
5.1640625,-29.78515625,-16.11328125,-9.765625,-18.06640625
5.16796875,-26.85546875,-21.484375,-13.671875,-27.83203125
5.171875,-36.62109375,-28.3203125,-14.16015625,-41.9921875
5.17578125,-51.7578125,-24.4140625,-15.13671875,-55.17578125
5.1796875,-37.59765625,-20.99609375,-20.99609375,-37.109375
5.18359375,-18.06640625,-26.3671875,-22.4609375,-15.625
5.1875,-36.62109375,-19.04296875,-17.578125,-25.390625
5.19140625,-52.24609375,-14.6484375,-21.484375,-39.0625
5.1953125,-45.8984375,-22.94921875,-31.25,-40.0390625
5.19921875,-36.62109375,-26.85546875,-34.1796875,-40.52734375
5.203125,-31.73828125,-26.85546875,-29.78515625,-35.15625
5.20703125,-45.8984375,-34.66796875,-29.78515625,-43.9453125
5.2109375,-57.6171875,-41.015625,-38.0859375,-61.03515625
5.21484375,-42.48046875,-44.43359375,-40.52734375,-47.8515625
5.21875,-44.43359375,-51.7578125,-37.59765625,-39.55078125
5.22265625,-66.40625,-53.22265625,-37.59765625,-48.33984375
5.2265625,-79.58984375,-50.78125,-40.0390625,-54.19921875
5.23046875,-81.54296875,-61.03515625,-45.41015625,-50.29296875
5.234375,-78.61328125,-67.3828125,-47.8515625,-67.87109375
5.23828125,-98.14453125,-61.03515625,-51.26953125,-94.23828125
5.2421875,-117.67578125,-71.77734375,-51.26953125,-92.7734375
5.24609375,-94.7265625,-75.1953125,-50.29296875,-86.9140625
5.25,-95.703125,-69.82421875,-55.17578125,-99.12109375
5.25390625,-130.859375,-65.4296875,-53.22265625,-132.8125
5.2578125,-136.71875,-60.05859375,-49.31640625,-131.34765625
5.26171875,-136.71875,-66.40625,-47.36328125,-128.90625
5.265625,-133.30078125,-58.59375,-37.59765625,-160.15625
5.26953125,-148.92578125,-44.921875,-29.78515625,-163.57421875
5.2734375,-195.80078125,-44.921875,-24.90234375,-170.8984375
5.27734375,-202.1484375,-41.50390625,-23.92578125,-180.17578125
5.28125,-192.87109375,-36.1328125,-26.3671875,-178.22265625
5.28515625,-213.37890625,-34.66796875,-26.3671875,-204.1015625
5.2890625,-228.02734375,-27.34375,-20.99609375,-223.14453125
5.29296875,-236.328125,-26.85546875,-19.53125,-220.21484375
5.296875,-228.515625,-26.3671875,-20.5078125,-215.33203125
5.30078125,-225.09765625,-24.90234375,-13.18359375,-208.49609375
5.3046875,-240.234375,-24.90234375,-8.30078125,-215.33203125
5.30859375,-232.421875,-17.578125,-11.71875,-229.00390625
5.3125,-211.42578125,-17.08984375,-18.06640625,-216.796875
5.31640625,-196.77734375,-17.578125,-14.16015625,-197.265625
5.3203125,-187.5,-18.5546875,-9.765625,-200.68359375
5.32421875,-180.6640625,-26.3671875,-12.6953125,-184.5703125
5.328125,-171.875,-25.390625,-17.08984375,-166.9921875
5.33203125,-163.0859375,-23.92578125,-29.78515625,-161.62109375
5.3359375,-159.66796875,-25.87890625,-31.25,-151.3671875
5.33984375,-147.94921875,-20.5078125,-23.92578125,-123.53515625
5.34375,-127.9296875,-16.11328125,-21.97265625,-112.3046875
5.34765625,-103.02734375,-19.53125,-34.1796875,-100.09765625
5.3515625,-87.890625,-23.4375,-45.41015625,-80.078125
5.35546875,-84.47265625,-26.85546875,-43.9453125,-87.40234375
5.359375,-81.0546875,-26.85546875,-39.55078125,-92.28515625
5.36328125,-54.6875,-22.94921875,-38.0859375,-59.5703125
5.3671875,-20.99609375,-18.06640625,-37.109375,-38.0859375
5.37109375,-16.11328125,-12.6953125,-32.2265625,-31.25
5.375,-19.53125,-13.18359375,-38.0859375,-19.04296875
5.37890625,-15.13671875,-15.13671875,-34.66796875,-12.6953125
5.3828125,-8.7890625,-25.87890625,-43.45703125,-7.32421875
5.38671875,-2.9296875,-35.64453125,-58.10546875,-8.30078125
5.390625,-15.625,-39.0625,-57.6171875,-3.90625
5.39453125,-14.16015625,-42.96875,-62.01171875,6.34765625
5.3984375,10.7421875,-39.0625,-66.40625,-0.48828125
5.40234375,6.8359375,-44.43359375,-77.63671875,-8.30078125
5.40625,-9.27734375,-52.24609375,-83.0078125,1.953125
5.41015625,-0.9765625,-48.828125,-82.03125,6.34765625
5.4140625,20.01953125,-41.9921875,-81.54296875,9.27734375
5.41796875,23.92578125,-38.0859375,-74.21875,9.765625
5.421875,27.83203125,-30.2734375,-59.08203125,21.484375
5.42578125,28.3203125,-27.83203125,-55.17578125,42.48046875
5.4296875,30.76171875,-36.1328125,-62.01171875,39.55078125
5.43359375,43.9453125,-32.2265625,-57.12890625,38.0859375
5.4375,26.3671875,-25.87890625,-47.36328125,39.55078125
5.44140625,16.11328125,-25.390625,-45.8984375,34.1796875
5.4453125,33.69140625,-26.85546875,-50.78125,44.921875
5.44921875,36.1328125,-34.1796875,-61.5234375,36.1328125
5.453125,24.4140625,-33.69140625,-62.01171875,21.484375
5.45703125,15.13671875,-39.0625,-56.15234375,26.3671875
5.4609375,12.6953125,-31.25,-58.59375,18.06640625
5.46484375,25.87890625,-24.4140625,-62.01171875,23.92578125
5.46875,27.83203125,-35.15625,-63.96484375,26.85546875
5.47265625,12.6953125,-32.2265625,-54.6875,16.6015625
5.4765625,10.7421875,-32.2265625,-47.36328125,10.25390625
5.48046875,25.87890625,-34.66796875,-53.22265625,16.6015625
5.484375,28.3203125,-40.52734375,-52.734375,25.87890625
5.48828125,19.53125,-43.45703125,-52.734375,20.99609375
5.4921875,12.20703125,-42.96875,-56.640625,15.625
5.49609375,17.578125,-43.45703125,-57.12890625,25.390625
5.5,25.390625,-38.57421875,-56.640625,20.5078125
5.50390625,17.08984375,-28.80859375,-47.36328125,17.08984375
5.5078125,2.44140625,-25.87890625,-40.52734375,24.90234375
5.51171875,-5.859375,-34.1796875,-42.48046875,15.13671875
5.515625,8.7890625,-37.59765625,-39.55078125,10.25390625
5.51953125,3.41796875,-36.62109375,-41.50390625,2.44140625
5.5234375,-19.53125,-41.50390625,-48.33984375,-12.20703125
5.52734375,-10.25390625,-45.41015625,-46.875,1.953125
5.53125,8.7890625,-44.43359375,-45.8984375,11.23046875
5.53515625,12.6953125,-46.875,-49.8046875,-5.37109375
5.5390625,-12.20703125,-47.8515625,-52.24609375,-2.9296875
5.54296875,-25.390625,-42.48046875,-55.17578125,10.25390625
5.546875,2.9296875,-35.64453125,-54.6875,23.4375
5.55078125,6.34765625,-34.66796875,-45.8984375,16.6015625
5.5546875,-26.85546875,-44.921875,-41.015625,-14.6484375
5.55859375,-28.3203125,-51.7578125,-42.96875,-18.5546875
5.5625,-12.20703125,-64.453125,-41.9921875,-4.39453125
5.56640625,-3.90625,-62.01171875,-47.8515625,-8.30078125
5.5703125,-6.8359375,-50.29296875,-49.31640625,-14.6484375
5.57421875,-11.23046875,-44.921875,-36.62109375,-3.41796875
5.578125,-6.34765625,-33.69140625,-31.25,15.13671875
5.58203125,37.59765625,-19.04296875,-17.08984375,37.59765625
5.5859375,60.546875,-3.90625,2.9296875,43.45703125
5.58984375,48.828125,14.6484375,17.08984375,45.41015625
5.59375,72.75390625,28.3203125,34.1796875,79.1015625
5.59765625,98.14453125,41.50390625,36.62109375,97.16796875
5.6015625,106.4453125,42.96875,51.7578125,102.5390625
5.60546875,102.05078125,54.6875,76.171875,118.65234375
5.609375,113.28125,84.47265625,82.51953125,140.13671875
5.61328125,140.625,93.26171875,84.47265625,154.78515625
5.6171875,150.87890625,98.14453125,94.7265625,146.97265625
5.62109375,152.34375,107.421875,103.02734375,128.41796875
5.625,152.34375,121.58203125,107.91015625,124.0234375
5.62890625,159.66796875,129.8828125,117.1875,156.25
5.6328125,176.7578125,140.625,122.0703125,180.6640625
5.63671875,177.734375,156.25,131.34765625,181.15234375
5.640625,176.7578125,160.15625,143.5546875,188.96484375
5.64453125,192.87109375,164.55078125,155.76171875,199.21875
5.6484375,208.984375,165.52734375,162.59765625,198.2421875
5.65234375,207.51953125,169.43359375,167.96875,195.80078125
5.65625,181.15234375,172.36328125,176.7578125,193.84765625
5.66015625,172.8515625,174.8046875,176.7578125,200.1953125
5.6640625,202.1484375,177.734375,173.828125,207.51953125
5.66796875,202.63671875,167.48046875,173.828125,208.49609375
5.671875,185.05859375,162.109375,178.22265625,211.42578125
5.67578125,183.10546875,161.62109375,178.22265625,217.28515625
5.6796875,193.359375,163.0859375,173.828125,214.35546875
5.68359375,205.56640625,164.55078125,175.29296875,209.9609375
5.6875,208.0078125,162.109375,175.29296875,212.890625
5.69140625,184.5703125,158.69140625,168.9453125,196.77734375
5.6953125,188.96484375,155.2734375,160.64453125,192.87109375
5.69921875,216.796875,151.3671875,155.2734375,191.89453125
5.703125,190.4296875,143.06640625,153.3203125,183.10546875
5.70703125,171.875,147.4609375,152.34375,174.8046875
5.7109375,178.7109375,156.25,153.80859375,180.6640625
5.71484375,187.98828125,154.78515625,150.390625,182.6171875
5.71875,178.22265625,155.2734375,150.87890625,170.8984375
5.72265625,155.2734375,155.76171875,149.90234375,167.96875
5.7265625,155.76171875,158.69140625,152.83203125,166.50390625
5.73046875,176.26953125,160.15625,157.71484375,171.875
5.734375,187.5,162.59765625,157.71484375,173.828125
5.73828125,157.71484375,156.73828125,157.2265625,173.828125
5.7421875,142.08984375,156.73828125,158.203125,185.546875
5.74609375,166.015625,153.80859375,153.80859375,187.98828125
5.75,175.29296875,149.90234375,143.5546875,180.17578125
5.75390625,159.66796875,149.90234375,135.7421875,167.96875
5.7578125,140.13671875,141.11328125,133.30078125,156.73828125
5.76171875,150.87890625,135.7421875,135.25390625,166.50390625
5.765625,168.45703125,134.27734375,132.8125,176.7578125
5.76953125,152.83203125,128.41796875,124.51171875,152.34375
5.7734375,136.23046875,123.046875,121.09375,135.25390625
5.77734375,141.6015625,127.44140625,119.140625,143.06640625
5.78125,145.5078125,123.53515625,116.69921875,147.4609375
5.78515625,144.53125,119.140625,114.2578125,139.16015625
5.7890625,133.7890625,120.1171875,107.91015625,134.27734375
5.79296875,115.234375,117.1875,103.02734375,129.39453125
5.796875,122.0703125,107.91015625,98.6328125,123.53515625
5.80078125,141.11328125,100.5859375,98.14453125,121.58203125
5.8046875,135.7421875,104.00390625,102.5390625,110.3515625
5.80859375,103.515625,101.07421875,96.19140625,103.02734375
5.8125,105.95703125,92.28515625,87.890625,109.86328125
5.81640625,127.44140625,91.30859375,83.49609375,113.76953125
5.8203125,113.28125,92.28515625,79.1015625,101.07421875
5.82421875,85.44921875,93.26171875,77.63671875,94.23828125
5.828125,86.9140625,85.44921875,74.70703125,94.23828125
5.83203125,107.91015625,79.58984375,76.66015625,95.703125
5.8359375,108.88671875,79.58984375,80.078125,92.7734375
5.83984375,81.54296875,88.8671875,81.0546875,82.03125
5.84375,84.47265625,102.5390625,85.9375,91.30859375
5.84765625,98.14453125,89.84375,84.9609375,97.65625
5.8515625,94.23828125,81.54296875,82.03125,78.125
5.85546875,75.1953125,74.70703125,72.265625,72.265625
5.859375,55.17578125,68.84765625,69.3359375,76.171875
5.86328125,71.2890625,69.82421875,70.80078125,76.66015625
5.8671875,102.05078125,72.265625,74.21875,81.0546875
5.87109375,91.30859375,71.77734375,78.61328125,83.984375
5.875,65.91796875,74.70703125,82.03125,70.3125
5.87890625,84.9609375,83.0078125,88.37890625,69.3359375
5.8828125,108.88671875,83.984375,91.30859375,94.7265625
5.88671875,103.515625,88.8671875,92.28515625,98.14453125
5.890625,88.8671875,87.40234375,92.28515625,86.42578125
5.89453125,83.0078125,81.0546875,85.44921875,83.49609375
5.8984375,103.02734375,82.03125,77.63671875,81.54296875
5.90234375,110.83984375,82.51953125,77.1484375,74.21875
5.90625,80.56640625,78.61328125,72.265625,68.84765625
5.91015625,63.96484375,72.265625,69.3359375,78.61328125
5.9140625,98.6328125,69.3359375,66.40625,86.9140625
5.91796875,104.00390625,69.3359375,60.546875,84.47265625
5.921875,72.75390625,66.40625,62.98828125,84.9609375
5.92578125,74.21875,62.01171875,66.40625,86.42578125
5.9296875,87.40234375,62.5,64.453125,90.8203125
5.93359375,94.7265625,64.94140625,68.359375,92.28515625
5.9375,65.91796875,56.15234375,63.4765625,71.77734375
5.94140625,33.203125,62.01171875,58.10546875,39.55078125
5.9453125,36.62109375,58.10546875,51.26953125,38.0859375
5.94921875,45.8984375,38.0859375,48.33984375,51.26953125
5.953125,39.55078125,42.48046875,55.17578125,37.59765625
5.95703125,29.78515625,43.45703125,50.78125,36.1328125
5.9609375,41.015625,41.015625,45.8984375,48.828125
5.96484375,45.8984375,39.55078125,41.9921875,42.96875
5.96875,43.9453125,35.15625,40.52734375,39.55078125
5.97265625,32.71484375,35.64453125,39.0625,36.1328125
5.9765625,14.16015625,26.85546875,29.78515625,22.94921875
5.98046875,23.92578125,30.2734375,27.34375,29.296875
5.984375,28.80859375,37.109375,31.73828125,42.96875
5.98828125,9.27734375,15.625,24.4140625,35.15625
5.9921875,-2.44140625,7.8125,15.625,15.625
5.99609375,10.7421875,10.25390625,12.6953125,-0.48828125
6.0,39.55078125,11.23046875,12.20703125,7.8125
6.00390625,31.25,8.7890625,8.30078125,3.90625
6.0078125,6.8359375,1.46484375,-1.953125,-11.71875
6.01171875,-0.48828125,-3.41796875,-9.27734375,-2.44140625
6.015625,10.25390625,-12.20703125,-6.34765625,1.953125
6.01953125,9.27734375,-8.30078125,-4.39453125,-12.20703125
6.0234375,-24.90234375,6.34765625,-6.8359375,-8.7890625
6.02734375,-17.578125,-9.27734375,-5.37109375,-3.90625
6.03125,-6.34765625,-22.4609375,-10.25390625,-12.20703125
6.03515625,-23.4375,-22.4609375,-11.23046875,-24.90234375
6.0390625,-41.015625,-24.4140625,-13.18359375,-37.59765625
6.04296875,-44.921875,-24.4140625,-19.04296875,-36.1328125
6.046875,-30.2734375,-29.296875,-21.484375,-28.3203125
6.05078125,-32.2265625,-33.203125,-27.83203125,-31.25
6.0546875,-49.8046875,-35.64453125,-33.203125,-38.0859375
6.05859375,-62.5,-40.52734375,-37.109375,-38.0859375
6.0625,-53.7109375,-38.0859375,-42.96875,-33.203125
6.06640625,-36.1328125,-37.109375,-37.59765625,-31.73828125
6.0703125,-35.15625,-33.69140625,-29.78515625,-36.62109375
6.07421875,-47.8515625,-35.64453125,-29.296875,-46.38671875
6.078125,-51.26953125,-41.50390625,-29.78515625,-42.48046875
6.08203125,-31.25,-38.0859375,-29.78515625,-21.484375
6.0859375,-15.13671875,-30.76171875,-26.85546875,-14.6484375
6.08984375,-34.1796875,-28.3203125,-25.87890625,-28.3203125
6.09375,-42.96875,-35.15625,-40.0390625,-26.3671875
6.09765625,-30.2734375,-39.0625,-41.50390625,-4.8828125
6.1015625,-26.3671875,-39.55078125,-36.1328125,-11.71875
6.10546875,-48.828125,-43.9453125,-40.52734375,-43.45703125
6.109375,-54.19921875,-35.64453125,-34.1796875,-37.109375
6.11328125,-29.296875,-28.80859375,-32.71484375,-15.625
6.1171875,-30.76171875,-37.59765625,-34.66796875,-25.390625
6.12109375,-44.43359375,-47.8515625,-30.76171875,-40.52734375
6.125,-46.38671875,-42.48046875,-28.80859375,-35.15625
6.12890625,-39.0625,-28.3203125,-28.80859375,-28.3203125
6.1328125,-28.3203125,-32.71484375,-30.2734375,-37.109375
6.13671875,-40.52734375,-34.66796875,-29.296875,-39.0625
6.140625,-56.640625,-31.73828125,-28.80859375,-24.4140625
6.14453125,-48.828125,-36.62109375,-31.25,-37.59765625
6.1484375,-47.8515625,-43.9453125,-33.69140625,-51.26953125
6.15234375,-44.921875,-38.57421875,-36.62109375,-57.6171875
6.15625,-61.5234375,-38.0859375,-38.57421875,-70.3125
6.16015625,-74.21875,-50.29296875,-40.52734375,-60.05859375
6.1640625,-67.87109375,-54.6875,-41.9921875,-68.84765625
6.16796875,-100.5859375,-55.17578125,-52.734375,-106.93359375
6.171875,-139.16015625,-61.5234375,-63.4765625,-131.8359375
6.17578125,-152.34375,-64.453125,-51.26953125,-127.9296875
6.1796875,-161.62109375,-64.453125,-42.96875,-142.578125
6.18359375,-163.0859375,-60.546875,-41.9921875,-173.828125
6.1875,-195.80078125,-61.5234375,-38.57421875,-204.1015625
6.19140625,-250.48828125,-67.3828125,-41.015625,-229.00390625
6.1953125,-256.34765625,-59.08203125,-26.3671875,-244.140625
6.19921875,-267.08984375,-63.4765625,-27.83203125,-290.0390625
6.203125,-302.734375,-74.21875,-27.34375,-319.3359375
6.20703125,-334.47265625,-67.3828125,-6.8359375,-323.73046875
6.2109375,-350.09765625,-60.546875,4.8828125,-335.44921875
6.21484375,-343.75,-66.40625,-1.953125,-341.30859375
6.21875,-346.19140625,-73.2421875,8.30078125,-338.37890625
6.22265625,-365.72265625,-81.0546875,22.94921875,-370.1171875
6.2265625,-382.8125,-67.3828125,28.3203125,-394.53125
6.23046875,-379.8828125,-44.921875,41.50390625,-347.65625
6.234375,-373.046875,-42.48046875,47.8515625,-325.1953125
6.23828125,-382.32421875,-46.38671875,45.41015625,-330.56640625
6.2421875,-385.7421875,-46.875,31.25,-332.51953125
6.24609375,-367.1875,-40.52734375,23.4375,-377.44140625
6.25,-346.19140625,-44.43359375,15.13671875,-403.80859375
6.25390625,-355.95703125,-55.6640625,6.8359375,-381.34765625
6.2578125,-358.3984375,-47.36328125,19.53125,-346.19140625
6.26171875,-344.23828125,-66.40625,9.27734375,-328.61328125
6.265625,-318.359375,-84.9609375,-7.8125,-337.40234375
6.26953125,-312.98828125,-64.453125,1.46484375,-346.6796875
6.2734375,-323.2421875,-61.5234375,2.9296875,-305.6640625
6.27734375,-295.41015625,-61.03515625,8.7890625,-257.32421875
6.28125,-251.953125,-52.24609375,15.625,-223.6328125
6.28515625,-237.79296875,-53.7109375,5.859375,-205.078125
6.2890625,-248.53515625,-60.05859375,-0.9765625,-183.59375
6.29296875,-247.0703125,-72.265625,-3.90625,-151.3671875
6.296875,-207.03125,-74.70703125,-2.9296875,-205.078125
6.30078125,-162.109375,-70.80078125,-14.6484375,-258.7890625
6.3046875,-133.30078125,-62.5,-11.23046875,-225.09765625
6.30859375,-109.86328125,-61.5234375,23.92578125,-177.734375
6.3125,-119.140625,-72.265625,19.53125,-156.73828125
6.31640625,-114.74609375,-69.3359375,5.859375,-102.5390625
6.3203125,-110.3515625,-70.3125,10.7421875,-68.84765625
6.32421875,-122.55859375,-69.3359375,8.30078125,-83.984375
6.328125,-86.42578125,-63.4765625,-2.44140625,-89.35546875
6.33203125,-46.875,-60.05859375,-3.90625,-51.26953125
6.3359375,-43.45703125,-56.15234375,0.9765625,-29.78515625
6.33984375,-31.73828125,-41.015625,14.16015625,-0.9765625
6.34375,1.46484375,-20.99609375,17.08984375,29.296875
6.34765625,37.59765625,-16.11328125,62.01171875,26.3671875
6.3515625,54.19921875,-18.5546875,95.21484375,2.9296875
6.35546875,55.6640625,-27.34375,96.19140625,17.08984375
6.359375,82.03125,14.16015625,153.80859375,77.63671875
6.36328125,146.97265625,83.984375,199.70703125,123.53515625
6.3671875,192.87109375,96.6796875,206.0546875,156.73828125
6.37109375,188.96484375,91.796875,197.75390625,143.5546875
6.375,202.1484375,95.21484375,188.4765625,161.62109375
6.37890625,242.1875,113.76953125,189.94140625,219.7265625
6.3828125,252.9296875,124.51171875,179.19921875,206.0546875
6.38671875,236.328125,124.51171875,171.38671875,187.5
6.390625,233.88671875,124.0234375,175.29296875,194.82421875
6.39453125,264.16015625,133.30078125,170.41015625,198.2421875
6.3984375,269.04296875,140.13671875,161.1328125,209.9609375
6.40234375,244.140625,141.11328125,161.62109375,236.81640625
6.40625,233.3984375,140.13671875,152.83203125,212.40234375
6.41015625,251.46484375,137.6953125,138.18359375,205.56640625
6.4140625,268.06640625,142.578125,140.13671875,245.60546875
6.41796875,272.4609375,134.765625,142.578125,240.72265625
6.421875,253.90625,135.7421875,139.6484375,219.23828125
6.42578125,237.79296875,129.39453125,123.53515625,214.35546875
6.4296875,245.1171875,120.60546875,102.05078125,224.12109375
6.43359375,254.8828125,134.27734375,93.75,237.3046875
6.4375,243.1640625,125.48828125,93.26171875,231.93359375
6.44140625,227.5390625,124.51171875,89.35546875,194.3359375
6.4453125,215.33203125,121.58203125,72.75390625,152.34375
6.44921875,208.49609375,94.23828125,62.5,154.296875
6.453125,203.125,91.30859375,55.6640625,167.48046875
6.45703125,184.08203125,98.14453125,52.734375,157.71484375
6.4609375,190.4296875,122.55859375,47.8515625,150.390625
6.46484375,218.75,136.23046875,51.7578125,170.8984375
6.46875,205.078125,113.76953125,57.6171875,143.5546875
6.47265625,179.19921875,106.4453125,47.8515625,112.79296875
6.4765625,172.8515625,100.09765625,40.0390625,119.62890625
6.48046875,185.546875,91.796875,30.76171875,131.8359375
6.484375,177.24609375,80.078125,19.53125,134.765625
6.48828125,158.69140625,68.359375,14.6484375,114.74609375
6.4921875,157.2265625,64.453125,10.25390625,99.12109375
6.49609375,150.87890625,52.24609375,5.37109375,115.72265625
6.5,145.99609375,52.734375,-3.41796875,114.74609375
6.50390625,131.8359375,60.05859375,-16.6015625,104.4921875
6.5078125,110.3515625,42.96875,-13.671875,106.4453125
6.51171875,108.3984375,33.69140625,1.46484375,87.890625
6.515625,121.09375,29.78515625,-1.46484375,86.42578125
6.51953125,90.8203125,18.06640625,-29.296875,70.80078125
6.5234375,50.78125,6.8359375,-47.36328125,45.41015625
6.52734375,46.38671875,-8.7890625,-47.36328125,36.62109375
6.53125,24.4140625,-22.4609375,-56.640625,27.34375
6.53515625,20.01953125,-45.41015625,-71.2890625,18.06640625
6.5390625,18.06640625,-58.10546875,-79.1015625,-4.39453125
6.54296875,-20.99609375,-45.8984375,-84.9609375,-9.27734375
6.546875,-32.71484375,-51.7578125,-86.42578125,-6.8359375
6.55078125,-33.203125,-69.3359375,-90.8203125,-23.92578125
6.5546875,-43.45703125,-69.82421875,-97.65625,-22.94921875
6.55859375,-68.359375,-69.82421875,-96.6796875,-32.2265625
6.5625,-64.453125,-71.77734375,-97.65625,-26.3671875
6.56640625,-37.59765625,-70.80078125,-99.609375,0.0
6.5703125,-56.15234375,-71.77734375,-98.14453125,-4.8828125
6.57421875,-80.078125,-82.03125,-94.7265625,-11.71875
6.578125,-73.2421875,-82.03125,-102.05078125,-31.73828125
6.58203125,-65.91796875,-86.42578125,-110.3515625,-60.546875
6.5859375,-80.56640625,-107.421875,-128.41796875,-72.75390625
6.58984375,-94.23828125,-107.91015625,-133.30078125,-65.4296875
6.59375,-88.37890625,-87.890625,-111.81640625,-46.38671875
6.59765625,-51.26953125,-70.3125,-87.890625,-10.7421875
6.6015625,-42.48046875,-59.08203125,-71.2890625,-7.32421875
6.60546875,-85.9375,-69.82421875,-81.0546875,-27.34375
6.609375,-101.07421875,-85.44921875,-101.5625,-30.2734375
6.61328125,-95.703125,-82.03125,-99.12109375,-32.71484375
6.6171875,-75.1953125,-72.265625,-90.33203125,-21.97265625
6.62109375,-62.98828125,-67.3828125,-80.078125,-19.53125
6.625,-76.171875,-55.6640625,-66.40625,-16.6015625
6.62890625,-68.359375,-42.96875,-53.22265625,-13.671875
6.6328125,-54.19921875,-44.921875,-51.26953125,-14.16015625
6.63671875,-54.19921875,-45.8984375,-61.5234375,-12.20703125
6.640625,-62.98828125,-33.69140625,-42.96875,-11.71875
6.64453125,-65.91796875,-26.3671875,-30.76171875,8.7890625
6.6484375,-44.43359375,-29.296875,-37.59765625,10.25390625
6.65234375,-35.64453125,-27.83203125,-33.69140625,4.39453125
6.65625,-54.19921875,-32.2265625,-30.76171875,16.6015625
6.66015625,-63.96484375,-37.109375,-42.48046875,14.16015625
6.6640625,-62.5,-46.38671875,-50.78125,20.99609375
6.66796875,-67.3828125,-51.7578125,-38.0859375,21.97265625
6.671875,-87.40234375,-47.8515625,-39.55078125,11.71875
6.67578125,-84.9609375,-51.7578125,-50.29296875,1.953125
6.6796875,-59.5703125,-46.875,-39.55078125,3.90625
6.68359375,-53.22265625,-36.1328125,-26.85546875,13.18359375
6.6875,-57.12890625,-39.0625,-44.921875,8.7890625
6.69140625,-73.2421875,-37.59765625,-55.6640625,-26.3671875
6.6953125,-94.23828125,-43.45703125,-55.6640625,-62.98828125
6.69921875,-67.87109375,-50.29296875,-60.546875,-41.9921875
6.703125,-58.10546875,-54.6875,-64.94140625,-32.2265625
6.70703125,-83.0078125,-55.6640625,-66.40625,-42.96875
6.7109375,-89.35546875,-46.875,-68.84765625,-43.9453125
6.71484375,-83.0078125,-45.8984375,-73.73046875,-60.546875
6.71875,-67.87109375,-48.828125,-62.5,-52.734375
6.72265625,-76.171875,-49.8046875,-58.10546875,-58.59375
6.7265625,-92.7734375,-55.17578125,-72.75390625,-66.40625
6.73046875,-76.66015625,-58.59375,-82.03125,-59.5703125
6.734375,-65.4296875,-54.6875,-69.3359375,-61.03515625
6.73828125,-76.171875,-49.31640625,-64.94140625,-56.640625
6.7421875,-93.26171875,-62.01171875,-71.77734375,-55.6640625
6.74609375,-83.0078125,-67.87109375,-66.89453125,-59.5703125
6.75,-62.01171875,-64.94140625,-70.3125,-50.78125
6.75390625,-77.63671875,-66.40625,-72.75390625,-41.015625
6.7578125,-84.9609375,-66.89453125,-63.4765625,-57.6171875
6.76171875,-73.2421875,-68.359375,-62.98828125,-60.05859375
6.765625,-63.4765625,-67.87109375,-71.2890625,-50.29296875
6.76953125,-67.3828125,-71.2890625,-64.94140625,-61.5234375
6.7734375,-66.40625,-63.4765625,-68.359375,-56.15234375
6.77734375,-65.4296875,-56.15234375,-64.453125,-47.36328125
6.78125,-74.70703125,-62.01171875,-53.7109375,-53.7109375
6.78515625,-76.66015625,-67.87109375,-52.734375,-59.08203125
6.7890625,-69.3359375,-60.05859375,-42.48046875,-54.19921875
6.79296875,-72.75390625,-54.6875,-46.38671875,-44.43359375
6.796875,-66.89453125,-54.6875,-45.41015625,-48.828125
6.80078125,-48.33984375,-41.50390625,-41.50390625,-50.29296875
6.8046875,-51.26953125,-26.85546875,-38.0859375,-27.83203125
6.80859375,-55.6640625,-27.83203125,-33.69140625,-23.92578125
6.8125,-45.41015625,-37.109375,-36.62109375,-38.0859375
6.81640625,-39.0625,-34.66796875,-40.52734375,-29.78515625
6.8203125,-44.43359375,-32.2265625,-51.26953125,-28.80859375
6.82421875,-64.94140625,-35.64453125,-56.15234375,-30.76171875
6.828125,-82.51953125,-37.59765625,-46.38671875,-24.4140625
6.83203125,-68.84765625,-40.52734375,-37.59765625,-14.6484375
6.8359375,-65.91796875,-41.50390625,-31.25,-9.765625
6.83984375,-79.58984375,-37.59765625,-41.9921875,1.953125
6.84375,-73.73046875,-35.64453125,-51.7578125,-7.32421875
6.84765625,-65.91796875,-47.8515625,-41.50390625,-8.30078125
6.8515625,-73.73046875,-55.6640625,-42.48046875,1.46484375
6.85546875,-91.796875,-58.59375,-50.29296875,-19.04296875
6.859375,-114.2578125,-61.5234375,-67.3828125,-52.734375
6.86328125,-112.79296875,-52.24609375,-61.03515625,-31.25
6.8671875,-87.890625,-48.33984375,-39.55078125,14.6484375
6.87109375,-105.95703125,-55.17578125,-60.546875,-5.37109375
6.875,-126.46484375,-58.10546875,-70.3125,-23.4375
6.87890625,-105.46875,-57.12890625,-42.96875,-2.44140625
6.8828125,-84.9609375,-64.453125,-32.71484375,-15.625
6.88671875,-94.23828125,-71.77734375,-31.73828125,-33.69140625
6.890625,-109.86328125,-68.359375,-28.80859375,-24.4140625
6.89453125,-104.98046875,-61.5234375,-36.1328125,-21.484375
6.8984375,-87.40234375,-50.29296875,-41.50390625,-9.765625
6.90234375,-81.0546875,-47.36328125,-41.9921875,-9.27734375
6.90625,-88.8671875,-44.921875,-44.921875,-17.08984375
6.91015625,-94.23828125,-37.109375,-54.19921875,-26.85546875
6.9140625,-76.171875,-36.1328125,-42.96875,-16.11328125
6.91796875,-63.4765625,-44.43359375,-32.2265625,-16.11328125
6.921875,-73.73046875,-33.69140625,-34.66796875,-13.18359375
6.92578125,-74.70703125,-28.3203125,-22.4609375,-7.8125
6.9296875,-56.15234375,-37.59765625,-9.765625,-21.484375
6.93359375,-38.57421875,-33.69140625,-15.625,-0.9765625
6.9375,-57.12890625,-31.73828125,-23.92578125,8.7890625
6.94140625,-63.4765625,-28.80859375,-23.92578125,-4.8828125
6.9453125,-59.08203125,-27.83203125,-28.80859375,-5.37109375
6.94921875,-47.36328125,-22.4609375,-26.85546875,-11.71875
6.953125,-46.38671875,-27.34375,-22.94921875,-28.3203125
6.95703125,-73.73046875,-32.2265625,-22.4609375,-39.0625
6.9609375,-63.96484375,-15.13671875,-17.08984375,-16.6015625
6.96484375,-36.1328125,-12.20703125,-14.16015625,16.6015625
6.96875,-36.1328125,-29.78515625,-20.5078125,15.13671875
6.97265625,-50.29296875,-37.109375,-22.94921875,-2.9296875
6.9765625,-51.7578125,-38.0859375,-18.5546875,-16.11328125
6.98046875,-47.8515625,-27.83203125,-10.7421875,-10.25390625
6.984375,-49.8046875,-24.4140625,-11.71875,-13.671875
6.98828125,-66.40625,-32.2265625,-28.3203125,-25.390625
6.9921875,-92.28515625,-44.43359375,-47.36328125,-27.83203125
6.99609375,-93.26171875,-52.734375,-40.52734375,-46.38671875
7.0,-67.3828125,-53.22265625,-36.62109375,-43.45703125
7.00390625,-63.4765625,-48.828125,-44.921875,-28.3203125
7.0078125,-81.54296875,-46.875,-40.52734375,-38.0859375
7.01171875,-72.265625,-40.0390625,-34.1796875,-24.4140625
7.015625,-54.19921875,-41.015625,-34.66796875,-23.4375
7.01953125,-67.87109375,-47.36328125,-32.2265625,-46.38671875
7.0234375,-82.03125,-48.33984375,-35.64453125,-45.41015625
7.02734375,-82.03125,-52.734375,-36.62109375,-29.78515625
7.03125,-73.2421875,-48.828125,-40.0390625,-21.97265625
7.03515625,-67.3828125,-44.921875,-41.50390625,-30.76171875
7.0390625,-73.73046875,-42.96875,-36.62109375,-31.73828125
7.04296875,-93.75,-45.41015625,-44.921875,-29.78515625
7.046875,-82.51953125,-49.8046875,-34.66796875,-30.2734375
7.05078125,-63.4765625,-38.57421875,-15.625,-26.85546875
7.0546875,-68.84765625,-33.69140625,-30.2734375,-22.4609375
7.05859375,-75.1953125,-41.015625,-42.48046875,-27.34375
7.0625,-86.9140625,-36.1328125,-34.66796875,-34.66796875
7.06640625,-78.125,-33.203125,-33.203125,-19.04296875
7.0703125,-68.359375,-36.62109375,-25.390625,-6.34765625
7.07421875,-83.0078125,-37.59765625,-28.3203125,-4.39453125
7.078125,-89.84375,-44.43359375,-38.57421875,-18.5546875
7.08203125,-86.42578125,-46.875,-36.1328125,-29.296875
7.0859375,-83.0078125,-38.57421875,-27.83203125,-23.4375
7.08984375,-91.30859375,-37.109375,-28.80859375,-29.296875
7.09375,-101.07421875,-46.38671875,-32.71484375,-46.875
7.09765625,-88.8671875,-40.0390625,-38.0859375,-31.73828125
7.1015625,-89.84375,-45.8984375,-40.0390625,-19.04296875
7.10546875,-97.16796875,-49.31640625,-26.85546875,-24.90234375
7.109375,-90.33203125,-39.0625,-18.06640625,-18.5546875
7.11328125,-76.66015625,-37.59765625,-29.78515625,-14.16015625
7.1171875,-53.7109375,-32.71484375,-28.80859375,-14.16015625
7.12109375,-58.10546875,-29.296875,-18.5546875,-14.16015625
7.125,-83.49609375,-29.78515625,-22.94921875,-19.04296875
7.12890625,-85.44921875,-41.50390625,-34.66796875,-15.13671875
7.1328125,-61.03515625,-44.921875,-38.0859375,-2.9296875
7.13671875,-58.10546875,-28.80859375,-10.25390625,-10.7421875
7.140625,-67.3828125,-23.92578125,-1.953125,-19.04296875
7.14453125,-58.10546875,-29.296875,-13.671875,-10.7421875
7.1484375,-52.734375,-28.80859375,-13.671875,-6.8359375
7.15234375,-56.15234375,-28.80859375,-16.11328125,-22.94921875
7.15625,-74.21875,-41.015625,-21.484375,-40.52734375
7.16015625,-89.35546875,-39.55078125,-31.25,-37.59765625
7.1640625,-70.3125,-34.1796875,-29.296875,-25.390625
7.16796875,-56.640625,-46.38671875,-31.25,-19.04296875
7.171875,-70.80078125,-46.875,-37.109375,-29.296875
7.17578125,-78.125,-41.50390625,-21.484375,-30.76171875
7.1796875,-56.15234375,-45.8984375,-15.13671875,-19.53125
7.18359375,-47.36328125,-46.875,-17.08984375,-21.484375
7.1875,-65.4296875,-37.109375,-14.6484375,-40.0390625
7.19140625,-82.03125,-38.57421875,-25.87890625,-43.9453125
7.1953125,-61.5234375,-39.55078125,-42.96875,-31.73828125
7.19921875,-33.203125,-29.296875,-35.15625,-17.08984375
7.203125,-47.36328125,-18.5546875,-24.90234375,-22.94921875
7.20703125,-64.94140625,-27.34375,-21.97265625,-34.1796875
7.2109375,-65.91796875,-42.48046875,-14.16015625,-22.94921875
7.21484375,-53.22265625,-39.55078125,-12.20703125,-24.90234375
7.21875,-56.640625,-31.73828125,-10.25390625,-35.15625
7.22265625,-77.1484375,-37.59765625,-16.6015625,-40.0390625
7.2265625,-70.80078125,-47.8515625,-31.25,-34.66796875
7.23046875,-63.96484375,-47.36328125,-34.66796875,-26.3671875
7.234375,-77.63671875,-44.921875,-28.80859375,-41.50390625
7.23828125,-85.9375,-50.78125,-18.5546875,-61.5234375
7.2421875,-105.46875,-41.015625,-17.08984375,-64.94140625
7.24609375,-117.67578125,-51.26953125,-30.2734375,-66.89453125
7.25,-106.4453125,-72.75390625,-33.69140625,-77.1484375
7.25390625,-128.41796875,-63.4765625,-32.71484375,-98.14453125
7.2578125,-170.41015625,-64.453125,-35.64453125,-115.234375
7.26171875,-187.98828125,-85.44921875,-37.109375,-127.44140625
7.265625,-178.7109375,-87.40234375,-36.1328125,-138.671875
7.26953125,-206.54296875,-82.51953125,-35.64453125,-167.48046875
7.2734375,-255.37109375,-90.8203125,-66.89453125,-204.1015625
7.27734375,-250.48828125,-97.16796875,-90.8203125,-199.21875
7.28125,-242.67578125,-91.30859375,-100.5859375,-212.890625
7.28515625,-292.48046875,-83.0078125,-127.44140625,-266.11328125
7.2890625,-329.58984375,-92.28515625,-124.0234375,-289.0625
7.29296875,-317.87109375,-86.9140625,-108.3984375,-267.08984375
7.296875,-320.3125,-72.75390625,-105.95703125,-282.71484375
7.30078125,-335.44921875,-71.2890625,-91.30859375,-304.19921875
7.3046875,-354.00390625,-65.4296875,-57.6171875,-304.19921875
7.30859375,-375.9765625,-54.6875,-39.0625,-328.61328125
7.3125,-366.2109375,-45.41015625,-38.57421875,-343.75
7.31640625,-365.72265625,-33.203125,-47.8515625,-362.3046875
7.3203125,-383.7890625,-25.390625,-56.15234375,-379.39453125
7.32421875,-384.27734375,-29.296875,-52.24609375,-385.7421875
7.328125,-361.81640625,-15.625,-43.9453125,-359.375
7.33203125,-330.078125,2.44140625,-48.33984375,-336.42578125
7.3359375,-305.17578125,8.7890625,-55.17578125,-341.796875
7.33984375,-314.94140625,10.7421875,-54.19921875,-324.70703125
7.34375,-324.21875,1.46484375,-63.96484375,-302.24609375
7.34765625,-313.96484375,0.9765625,-75.68359375,-316.89453125
7.3515625,-297.8515625,8.7890625,-90.8203125,-308.10546875
7.35546875,-290.52734375,6.8359375,-106.93359375,-290.0390625
7.359375,-288.0859375,-8.30078125,-115.234375,-292.48046875
7.36328125,-266.11328125,-16.11328125,-120.1171875,-270.99609375
7.3671875,-233.88671875,-17.578125,-124.51171875,-238.76953125
7.37109375,-223.6328125,-19.53125,-131.34765625,-233.88671875
7.375,-208.984375,-25.87890625,-131.8359375,-221.19140625
7.37890625,-175.78125,-30.76171875,-138.18359375,-186.5234375
7.3828125,-146.97265625,-27.34375,-147.4609375,-158.69140625
7.38671875,-127.44140625,-29.296875,-159.1796875,-141.11328125
7.390625,-121.09375,-45.41015625,-172.8515625,-138.18359375
7.39453125,-102.05078125,-59.5703125,-176.26953125,-123.53515625
7.3984375,-69.3359375,-61.5234375,-175.78125,-101.5625
7.40234375,-69.3359375,-62.01171875,-184.08203125,-98.6328125
7.40625,-61.5234375,-59.5703125,-185.05859375,-80.56640625
7.41015625,-22.94921875,-52.734375,-173.33984375,-51.26953125
7.4140625,10.25390625,-54.19921875,-169.921875,-18.06640625
7.41796875,13.18359375,-56.15234375,-176.26953125,-14.16015625
7.421875,-3.90625,-55.6640625,-187.01171875,-23.92578125
7.42578125,5.37109375,-56.640625,-186.5234375,-4.39453125
7.4296875,37.109375,-52.24609375,-179.19921875,10.7421875
7.43359375,55.17578125,-48.828125,-180.17578125,22.4609375
7.4375,31.25,-51.26953125,-184.08203125,20.99609375
7.44140625,33.203125,-62.01171875,-173.828125,33.69140625
7.4453125,67.3828125,-59.5703125,-160.15625,60.05859375
7.44921875,71.2890625,-49.8046875,-164.0625,48.33984375
7.453125,49.8046875,-60.05859375,-172.8515625,36.62109375
7.45703125,30.76171875,-75.1953125,-175.29296875,38.57421875
7.4609375,33.203125,-78.125,-177.24609375,33.69140625
7.46484375,59.08203125,-73.2421875,-174.31640625,45.8984375
7.46875,69.82421875,-76.171875,-167.96875,48.33984375
7.47265625,61.03515625,-78.125,-162.109375,40.52734375
7.4765625,60.05859375,-77.1484375,-158.203125,56.640625
7.48046875,73.73046875,-61.03515625,-154.78515625,73.73046875
7.484375,68.84765625,-55.6640625,-151.3671875,70.3125
7.48828125,46.875,-69.82421875,-150.390625,48.828125
7.4921875,44.921875,-64.94140625,-145.5078125,49.8046875
7.49609375,37.59765625,-65.4296875,-141.6015625,47.36328125
7.5,42.48046875,-74.70703125,-140.13671875,37.109375
7.50390625,51.26953125,-71.77734375,-133.30078125,45.41015625
7.5078125,26.85546875,-74.21875,-135.25390625,34.1796875
7.51171875,25.87890625,-85.44921875,-143.06640625,16.11328125
7.515625,36.1328125,-87.890625,-137.6953125,16.6015625
7.51953125,20.99609375,-80.078125,-128.41796875,9.27734375
7.5234375,8.7890625,-69.82421875,-127.9296875,11.23046875
7.52734375,12.20703125,-80.078125,-127.9296875,32.2265625
7.53125,18.06640625,-82.03125,-130.859375,37.59765625
7.53515625,22.4609375,-79.1015625,-107.91015625,28.80859375
7.5390625,8.7890625,-81.0546875,-37.59765625,10.25390625
7.54296875,-1.953125,-77.1484375,-2.9296875,11.23046875
7.546875,15.625,-70.3125,1.46484375,20.5078125
7.55078125,32.71484375,-65.4296875,11.71875,10.7421875
7.5546875,27.34375,-64.453125,11.23046875,12.20703125
7.55859375,16.11328125,-63.96484375,0.48828125,23.4375
7.5625,18.06640625,-66.89453125,-24.90234375,29.296875
7.56640625,19.04296875,-66.40625,-42.48046875,12.6953125
7.5703125,6.8359375,-65.4296875,-39.0625,-4.39453125
7.57421875,-9.765625,-67.3828125,-32.71484375,5.859375
7.578125,-8.30078125,-74.21875,-33.203125,14.16015625
7.58203125,-2.44140625,-51.7578125,-34.66796875,14.6484375
7.5859375,-3.90625,-44.43359375,-24.90234375,12.6953125
7.58984375,-9.27734375,-68.359375,-24.90234375,-4.39453125
7.59375,-15.13671875,-71.77734375,-27.34375,-10.25390625
7.59765625,-8.30078125,-71.2890625,-26.85546875,-1.46484375
7.6015625,0.0,-76.66015625,-35.15625,-6.8359375
7.60546875,-28.80859375,-80.56640625,-38.57421875,-12.6953125
7.609375,-53.7109375,-79.58984375,-39.0625,-12.20703125
7.61328125,-34.66796875,-83.49609375,-44.921875,-2.44140625
7.6171875,-39.55078125,-92.28515625,-50.29296875,-15.625
7.62109375,-42.48046875,-63.96484375,-45.8984375,-29.296875
7.625,-53.22265625,-45.8984375,-45.41015625,-14.6484375
7.62890625,-54.6875,-76.171875,-47.36328125,-8.30078125
7.6328125,-26.85546875,-76.171875,-45.8984375,4.8828125
7.63671875,-27.83203125,-71.77734375,-44.921875,-2.9296875
7.640625,-44.43359375,-72.265625,-47.36328125,-20.5078125
7.64453125,-50.29296875,-72.265625,-51.26953125,-6.34765625
7.6484375,-44.921875,-78.125,-46.875,5.859375
7.65234375,-42.96875,-73.2421875,-42.48046875,7.8125
7.65625,-39.0625,-68.84765625,-41.015625,1.953125
7.66015625,-46.38671875,-56.15234375,-31.25,-6.8359375
7.6640625,-41.50390625,-31.73828125,-24.4140625,4.8828125
7.66796875,-42.48046875,-51.7578125,-27.83203125,8.30078125
7.671875,-63.4765625,-62.5,-28.80859375,-2.9296875
7.67578125,-72.265625,-59.08203125,-28.3203125,-0.48828125
7.6796875,-60.546875,-65.91796875,-28.3203125,5.859375
7.68359375,-39.55078125,-61.03515625,-24.4140625,-2.44140625
7.6875,-41.015625,-62.01171875,-30.76171875,-19.53125
7.69140625,-52.734375,-66.89453125,-47.8515625,-12.6953125
7.6953125,-40.52734375,-62.5,-55.6640625,5.37109375
7.69921875,-31.73828125,-63.4765625,-78.125,13.18359375
7.703125,-46.875,-62.98828125,-108.88671875,-0.48828125
7.70703125,-53.7109375,-64.94140625,-113.28125,-15.13671875
7.7109375,-44.921875,-77.63671875,-113.28125,-12.6953125
7.71484375,-30.2734375,-74.70703125,-116.2109375,-10.7421875
7.71875,-47.36328125,-64.453125,-120.60546875,-23.92578125
7.72265625,-78.125,-58.10546875,-122.0703125,-39.55078125
7.7265625,-54.19921875,-53.22265625,-117.67578125,-19.04296875
7.73046875,-36.62109375,-47.8515625,-114.2578125,-12.6953125
7.734375,-35.15625,-37.59765625,-96.19140625,-7.32421875
7.73828125,-31.25,-35.15625,-77.1484375,7.32421875
7.7421875,-52.24609375,-41.015625,-84.47265625,-2.44140625
7.74609375,-71.77734375,-50.78125,-98.6328125,-23.4375
7.75,-66.89453125,-62.5,-104.98046875,-31.25
7.75390625,-64.94140625,-65.4296875,-107.421875,-34.1796875
7.7578125,-66.89453125,-64.94140625,-102.5390625,-31.73828125
7.76171875,-63.4765625,-39.55078125,-103.02734375,-20.99609375
7.765625,-54.19921875,-35.15625,-101.5625,-14.16015625
7.76953125,-46.875,-56.640625,-92.28515625,-16.6015625
7.7734375,-57.6171875,-53.7109375,-92.28515625,-18.06640625
7.77734375,-60.546875,-56.15234375,-97.16796875,-17.08984375
7.78125,-48.33984375,-55.17578125,-90.8203125,-16.11328125
7.78515625,-43.9453125,-56.15234375,-85.44921875,-23.92578125
7.7890625,-65.91796875,-61.5234375,-87.40234375,-31.73828125
7.79296875,-75.1953125,-60.05859375,-85.9375,-25.87890625
7.796875,-47.36328125,-59.5703125,-74.70703125,-32.71484375
7.80078125,-28.3203125,-47.36328125,-70.3125,-26.3671875
7.8046875,-46.38671875,-38.0859375,-72.265625,-12.6953125
7.80859375,-48.828125,-41.9921875,-69.3359375,-12.20703125
7.8125,-31.25,-31.25,-63.4765625,-12.20703125
7.81640625,-17.08984375,-32.2265625,-59.08203125,-6.8359375
7.8203125,-18.06640625,-27.34375,-65.4296875,-3.41796875
7.82421875,-41.015625,-18.5546875,-70.80078125,-22.94921875
7.828125,-45.41015625,-26.85546875,-67.3828125,-46.875
7.83203125,-33.69140625,-37.59765625,-68.359375,-52.734375
7.8359375,-41.9921875,-41.015625,-66.40625,-44.921875
7.83984375,-51.26953125,-41.9921875,-74.21875,-45.41015625
7.84375,-55.6640625,-52.734375,-98.14453125,-38.57421875
7.84765625,-65.4296875,-53.7109375,-100.5859375,-37.109375
7.8515625,-50.78125,-45.41015625,-80.56640625,-37.109375
7.85546875,-42.48046875,-42.48046875,-78.125,-33.203125
7.859375,-70.3125,-53.7109375,-93.26171875,-50.78125
7.86328125,-65.4296875,-66.89453125,-93.26171875,-44.43359375
7.8671875,-41.015625,-65.91796875,-83.0078125,-26.3671875
7.87109375,-61.5234375,-65.91796875,-87.40234375,-47.36328125
7.875,-84.47265625,-71.77734375,-91.30859375,-62.5
7.87890625,-58.10546875,-71.2890625,-84.47265625,-40.52734375
7.8828125,-43.9453125,-72.265625,-78.61328125,-40.0390625
7.88671875,-59.5703125,-77.63671875,-75.68359375,-51.7578125
7.890625,-76.171875,-76.171875,-77.1484375,-54.19921875
7.89453125,-85.9375,-66.89453125,-75.68359375,-58.59375
7.8984375,-66.89453125,-59.08203125,-73.2421875,-54.19921875
7.90234375,-70.80078125,-62.01171875,-75.1953125,-61.5234375
7.90625,-70.3125,-55.17578125,-71.77734375,-61.5234375
7.91015625,-61.03515625,-42.96875,-63.96484375,-40.0390625
7.9140625,-47.36328125,-34.66796875,-54.19921875,-29.296875
7.91796875,-27.34375,-28.3203125,-50.29296875,-22.94921875
7.921875,-40.0390625,-25.390625,-55.17578125,-40.52734375
7.92578125,-52.734375,-23.92578125,-49.8046875,-44.43359375
7.9296875,-34.1796875,-20.01953125,-38.57421875,-15.13671875
7.93359375,-5.37109375,-16.11328125,-27.83203125,4.8828125
7.9375,-5.37109375,-10.25390625,-23.4375,0.9765625
7.94140625,-10.25390625,3.41796875,-18.5546875,6.34765625
7.9453125,-2.44140625,7.32421875,-14.16015625,24.90234375
7.94921875,5.37109375,-0.48828125,-13.671875,32.2265625
7.953125,12.20703125,1.46484375,-5.859375,32.2265625
7.95703125,-15.13671875,7.32421875,0.0,17.08984375
7.9609375,1.953125,13.671875,3.41796875,35.64453125
7.96484375,27.83203125,19.04296875,15.625,67.87109375
7.96875,12.6953125,23.4375,25.390625,62.5
7.97265625,13.18359375,33.69140625,33.69140625,53.7109375
7.9765625,2.9296875,35.15625,26.3671875,43.9453125
7.98046875,0.0,32.2265625,14.6484375,38.57421875
7.984375,26.85546875,33.69140625,24.4140625,54.6875
7.98828125,18.5546875,37.109375,32.2265625,54.19921875
7.9921875,-10.25390625,33.203125,26.85546875,43.45703125
7.99609375,-8.30078125,23.92578125,20.99609375,41.50390625
8.0,-4.8828125,24.90234375,17.578125,41.015625
8.00390625,-28.80859375,25.390625,12.6953125,38.57421875
8.0078125,-43.45703125,21.97265625,23.4375,33.69140625
8.01171875,-45.8984375,20.99609375,28.80859375,32.2265625
8.015625,-43.45703125,17.08984375,18.5546875,25.390625
8.01953125,-47.8515625,10.25390625,7.32421875,4.8828125
8.0234375,-66.89453125,4.39453125,0.9765625,-6.8359375
8.02734375,-53.7109375,5.859375,-3.41796875,5.859375
8.03125,-11.23046875,4.39453125,-3.41796875,10.7421875
8.03515625,-19.04296875,0.9765625,-3.90625,0.48828125
8.0390625,-40.0390625,-0.9765625,-6.8359375,4.39453125
8.04296875,-34.66796875,10.25390625,-4.39453125,13.671875
8.046875,-28.3203125,7.32421875,-4.39453125,13.671875
8.05078125,-15.625,-2.44140625,-7.32421875,11.71875
8.0546875,-14.6484375,9.765625,-1.953125,19.53125
8.05859375,-24.90234375,9.27734375,-10.7421875,13.18359375
8.0625,-17.08984375,-5.859375,-18.06640625,14.6484375
8.06640625,-11.71875,-7.8125,-18.06640625,19.04296875
8.0703125,-27.83203125,-0.9765625,-15.625,3.41796875
8.07421875,-29.78515625,-3.41796875,-7.32421875,4.39453125
8.078125,-20.99609375,-6.34765625,-7.32421875,4.39453125
8.08203125,-9.765625,-3.41796875,-5.859375,0.0
8.0859375,2.44140625,2.9296875,5.37109375,4.8828125
8.08984375,-13.18359375,5.859375,16.6015625,9.765625
8.09375,-23.4375,9.765625,17.578125,11.23046875
8.09765625,-11.23046875,12.6953125,8.7890625,3.90625
8.1015625,-10.25390625,11.23046875,4.39453125,2.9296875
8.10546875,-26.85546875,5.37109375,1.46484375,6.8359375
8.109375,-36.62109375,-5.859375,-5.859375,0.9765625
8.11328125,-31.25,-11.23046875,-5.37109375,3.41796875
