Timestamp,TP9,AF7,AF8,TP10
120.0078125,-11.71875,-41.50390625,-42.48046875,-11.71875
120.01171875,0.48828125,-40.0390625,-43.9453125,-42.48046875
120.015625,-37.109375,-41.9921875,-36.1328125,-62.01171875
120.01953125,-68.359375,-53.7109375,-35.15625,-71.77734375
120.0234375,-60.05859375,-55.6640625,-39.0625,-51.26953125
120.02734375,-15.13671875,-56.640625,-39.0625,0.0
120.03125,-27.83203125,-56.640625,-38.57421875,5.37109375
120.03515625,-61.5234375,-9.27734375,-43.45703125,-25.390625
120.0390625,-44.921875,17.08984375,-40.0390625,-31.73828125
120.04296875,-10.7421875,-36.62109375,-33.203125,-19.04296875
120.046875,-10.25390625,-82.51953125,-33.69140625,-14.6484375
120.05078125,-55.6640625,-71.77734375,-38.57421875,-2.44140625
120.0546875,-47.8515625,-44.921875,-41.50390625,-43.45703125
120.05859375,11.71875,-50.29296875,-40.0390625,-59.5703125
120.0625,9.765625,-39.55078125,-41.50390625,-11.23046875
120.06640625,-30.2734375,-34.66796875,-36.62109375,-28.3203125
120.0703125,-72.265625,-50.29296875,-34.66796875,-41.015625
120.07421875,-52.24609375,-13.671875,-41.015625,-27.83203125
120.078125,-5.859375,22.94921875,-39.0625,-24.4140625
120.08203125,-10.25390625,-27.34375,-40.52734375,-24.90234375
120.0859375,-10.25390625,-43.45703125,-44.921875,-40.0390625
120.08984375,-35.15625,-35.64453125,-39.55078125,-20.99609375
120.09375,-25.390625,-41.9921875,-36.1328125,-8.7890625
120.09765625,-2.9296875,-43.45703125,-41.9921875,-19.04296875
120.1015625,-68.359375,-44.921875,-46.38671875,-53.22265625
120.10546875,-92.7734375,-63.4765625,-46.875,-93.26171875
120.109375,-15.625,-56.15234375,-51.26953125,-46.875
120.11328125,29.296875,-41.015625,-45.41015625,-24.4140625
120.1171875,-30.2734375,-31.73828125,-41.50390625,-32.71484375
120.12109375,-56.15234375,-32.2265625,-50.78125,-3.41796875
120.125,-37.109375,-35.15625,-52.24609375,-86.9140625
120.12890625,-12.6953125,-28.80859375,-47.8515625,-73.2421875
120.1328125,-46.875,-41.015625,-47.36328125,-53.22265625
120.13671875,-93.75,-58.10546875,-50.78125,-96.6796875
120.140625,-63.4765625,-81.54296875,-49.31640625,-25.87890625
120.14453125,-20.01953125,-60.546875,-48.828125,-4.39453125
120.1484375,-27.34375,-36.62109375,-47.8515625,-57.12890625
120.15234375,-86.42578125,-50.78125,-50.29296875,-84.47265625
120.15625,-84.9609375,-50.78125,-52.24609375,-43.9453125
120.16015625,-37.109375,-39.0625,-49.31640625,-44.43359375
120.1640625,-17.08984375,-46.875,-49.31640625,-40.0390625
120.16796875,-63.96484375,-33.203125,-55.17578125,-54.6875
120.171875,-98.14453125,-26.3671875,-61.5234375,-56.640625
120.17578125,-32.2265625,-53.7109375,-54.19921875,-45.41015625
120.1796875,-4.8828125,-51.26953125,-42.48046875,-59.5703125
120.18359375,-54.19921875,-46.38671875,-46.38671875,-55.17578125
120.1875,-53.7109375,-41.9921875,-56.15234375,-59.08203125
120.19140625,-10.7421875,-35.15625,-48.33984375,-38.0859375
120.1953125,-4.8828125,-49.31640625,-41.015625,-24.90234375
120.19921875,-30.2734375,-46.38671875,-44.921875,-60.546875
120.203125,-34.1796875,-36.62109375,-44.43359375,-91.796875
120.20703125,-44.921875,-47.8515625,-42.48046875,-85.44921875
120.2109375,-11.71875,-46.38671875,-48.828125,-38.0859375
120.21484375,3.90625,-23.4375,-45.8984375,-1.953125
120.21875,-73.73046875,-14.6484375,-40.0390625,-32.2265625
120.22265625,-100.5859375,-40.52734375,-40.0390625,-37.109375
120.2265625,-26.3671875,-31.73828125,-38.0859375,-19.53125
120.23046875,14.6484375,-56.15234375,-39.0625,-35.64453125
120.234375,-62.5,-86.42578125,-44.43359375,-67.87109375
120.23828125,-78.125,-57.6171875,-50.78125,-57.12890625
120.2421875,-40.0390625,-50.29296875,-48.33984375,-33.69140625
120.24609375,-26.85546875,-47.8515625,-46.38671875,-29.296875
120.25,-32.2265625,-21.97265625,-54.19921875,-23.92578125
120.25390625,-59.08203125,-2.44140625,-57.6171875,-35.64453125
120.2578125,-32.2265625,2.9296875,-53.7109375,-30.2734375
120.26171875,-6.8359375,-18.06640625,-48.828125,-32.2265625
120.265625,-41.50390625,-33.203125,-47.8515625,-56.15234375
120.26953125,-79.1015625,-38.57421875,-50.29296875,-76.66015625
120.2734375,-85.44921875,-40.0390625,-49.31640625,-55.17578125
120.27734375,-18.5546875,-54.6875,-45.8984375,-11.23046875
120.28125,0.48828125,-76.66015625,-45.41015625,-27.83203125
120.28515625,-54.6875,-70.80078125,-48.33984375,-50.78125
120.2890625,-40.0390625,-40.52734375,-44.921875,-31.73828125
120.29296875,21.97265625,-30.2734375,-43.9453125,-25.87890625
120.296875,21.97265625,-44.43359375,-47.8515625,-35.64453125
120.30078125,-43.45703125,-59.08203125,-51.7578125,-45.41015625
120.3046875,-78.61328125,-51.26953125,-56.640625,-53.7109375
120.30859375,-36.1328125,-25.87890625,-56.640625,-30.76171875
120.3125,1.953125,-33.69140625,-54.19921875,-8.7890625
120.31640625,-46.875,-113.76953125,-55.17578125,-29.78515625
120.3203125,-81.0546875,-102.5390625,-51.7578125,-49.8046875
120.32421875,-52.734375,-23.92578125,-44.43359375,-29.296875
120.328125,-22.4609375,-29.296875,-37.59765625,-27.34375
120.33203125,-54.6875,-40.52734375,-43.45703125,-67.3828125
120.3359375,-76.66015625,-54.19921875,-54.6875,-74.21875
120.33984375,-28.80859375,-51.7578125,-55.17578125,-66.40625
120.34375,-6.34765625,-46.875,-44.43359375,-18.5546875
120.34765625,-31.73828125,-29.296875,-35.64453125,-14.6484375
120.3515625,-58.59375,-46.38671875,-38.0859375,-82.51953125
120.35546875,-67.87109375,-7.8125,-39.55078125,-69.82421875
120.359375,-12.6953125,52.24609375,-40.52734375,-35.15625
120.36328125,5.859375,-18.06640625,-46.875,-23.4375
120.3671875,-47.36328125,-52.24609375,-48.828125,-52.734375
120.37109375,-52.734375,-54.19921875,-48.33984375,-76.66015625
120.375,-43.45703125,-64.453125,-52.24609375,-56.15234375
120.37890625,2.9296875,-60.546875,-51.26953125,-43.45703125
120.3828125,2.9296875,-56.15234375,-54.19921875,-41.015625
120.38671875,-44.43359375,-54.19921875,-57.12890625,-46.875
120.390625,-21.484375,-49.31640625,-51.26953125,-27.83203125
120.39453125,23.4375,-10.7421875,-50.78125,5.37109375
120.3984375,27.34375,3.90625,-53.22265625,-8.7890625
120.40234375,-39.0625,-48.828125,-51.26953125,-58.10546875
120.40625,-71.2890625,-57.6171875,-57.12890625,-35.15625
120.41015625,4.39453125,-52.24609375,-56.15234375,-38.0859375
120.4140625,5.859375,-54.19921875,-50.29296875,-55.17578125
120.41796875,-42.48046875,-43.9453125,-49.8046875,-34.66796875
120.421875,-39.0625,-32.2265625,-44.43359375,-53.22265625
120.42578125,-10.25390625,-43.9453125,-46.875,-42.96875
120.4296875,23.92578125,-82.51953125,-53.22265625,-15.625
120.43359375,-13.671875,-77.1484375,-46.38671875,-12.20703125
120.4375,-95.703125,-40.0390625,-43.9453125,-32.2265625
120.44140625,-47.36328125,-21.484375,-50.29296875,-37.59765625
120.4453125,-9.27734375,-18.5546875,-47.8515625,-28.80859375
120.44921875,-59.08203125,-53.7109375,-42.96875,-82.51953125
120.453125,-61.03515625,-65.91796875,-48.828125,-75.1953125
120.45703125,-21.97265625,-22.94921875,-55.6640625,-21.97265625
120.4609375,32.71484375,-15.625,-47.36328125,-7.32421875
120.46484375,-1.953125,-39.0625,-43.9453125,-23.92578125
120.46875,-82.51953125,-48.828125,-44.43359375,-59.5703125
120.47265625,-58.59375,-41.015625,-46.875,-86.9140625
120.4765625,5.37109375,-26.3671875,-47.8515625,-61.5234375
120.48046875,6.34765625,-62.5,-43.9453125,-13.671875
120.484375,-48.33984375,-84.47265625,-47.36328125,-38.57421875
120.48828125,-44.921875,-40.0390625,-53.22265625,-45.8984375
120.4921875,14.6484375,-39.0625,-45.8984375,-9.27734375
120.49609375,24.4140625,-19.53125,-40.52734375,-21.97265625
120.5,-58.59375,-15.13671875,-47.8515625,-74.70703125
120.50390625,-104.98046875,-56.640625,-50.29296875,-65.91796875
120.5078125,-55.6640625,-45.41015625,-46.875,-14.6484375
120.51171875,-29.296875,-39.0625,-46.38671875,-37.59765625
120.515625,-45.41015625,-23.4375,-45.41015625,-94.7265625
120.51953125,-97.16796875,-30.76171875,-44.921875,-86.42578125
120.5234375,-98.14453125,-60.05859375,-41.9921875,-52.734375
120.52734375,-0.48828125,-61.5234375,-43.45703125,-11.71875
120.53125,-7.32421875,-48.828125,-37.109375,-22.4609375
120.53515625,-67.3828125,-26.85546875,-34.1796875,-54.6875
120.5390625,-34.1796875,-36.62109375,-42.48046875,-32.2265625
120.54296875,-8.30078125,-77.1484375,-44.43359375,13.18359375
120.546875,-27.34375,-45.8984375,-40.52734375,-35.15625
120.55078125,-68.84765625,-2.9296875,-41.015625,-61.03515625
120.5546875,-92.7734375,-36.62109375,-38.57421875,-51.26953125
120.55859375,-62.01171875,-76.66015625,-36.1328125,-46.875
120.5625,-17.08984375,-74.21875,-39.55078125,-29.78515625
120.56640625,-18.5546875,-45.41015625,-45.41015625,-94.7265625
120.5703125,-48.828125,-21.484375,-48.33984375,-97.16796875
120.57421875,-23.4375,-36.1328125,-44.921875,-24.90234375
120.578125,-18.06640625,-56.640625,-42.48046875,-16.11328125
120.58203125,-53.7109375,-43.45703125,-41.50390625,-47.36328125
120.5859375,-99.12109375,-47.36328125,-46.38671875,-60.546875
120.58984375,-107.421875,-46.875,-56.640625,-33.203125
120.59375,-48.33984375,-54.6875,-54.19921875,-52.734375
120.59765625,-45.41015625,-87.890625,-49.31640625,-53.7109375
120.6015625,-87.40234375,-80.078125,-52.734375,-22.94921875
120.60546875,-107.91015625,-59.5703125,-53.22265625,-48.828125
120.609375,-57.6171875,-45.41015625,-46.875,-55.17578125
120.61328125,-45.8984375,-35.64453125,-42.48046875,-64.94140625
120.6171875,-85.44921875,-55.17578125,-45.41015625,-80.56640625
120.62109375,-101.07421875,-70.3125,-45.8984375,-71.2890625
120.625,-88.8671875,-76.66015625,-37.109375,-56.15234375
120.62890625,-67.87109375,-95.21484375,-34.66796875,-54.19921875
120.6328125,-88.8671875,-87.890625,-42.48046875,-65.91796875
120.63671875,-74.21875,-18.06640625,-40.52734375,-50.78125
120.640625,-70.3125,-29.296875,-40.0390625,-50.29296875
120.64453125,-61.5234375,-61.03515625,-43.9453125,-16.6015625
120.6484375,-63.96484375,-46.38671875,-46.38671875,-2.9296875
120.65234375,-90.33203125,-62.01171875,-50.29296875,-52.24609375
120.65625,-64.94140625,-40.0390625,-49.8046875,-52.24609375
120.66015625,-22.4609375,-28.3203125,-42.96875,-43.45703125
120.6640625,-41.015625,-42.48046875,-39.55078125,-66.89453125
120.66796875,-97.65625,-51.26953125,-45.8984375,-62.5
120.671875,-88.37890625,-44.921875,-46.875,-30.76171875
120.67578125,-24.90234375,-44.43359375,-42.96875,-3.41796875
120.6796875,-5.859375,-59.08203125,-41.50390625,-8.7890625
120.68359375,-71.77734375,-77.63671875,-41.50390625,-43.9453125
120.6875,-76.66015625,-56.640625,-53.22265625,-50.78125
120.69140625,-31.73828125,-32.2265625,-67.3828125,-19.04296875
120.6953125,-5.37109375,-47.8515625,-57.6171875,-7.8125
120.69921875,-16.11328125,-35.15625,-45.41015625,-39.0625
120.703125,-75.68359375,-19.04296875,-50.78125,-78.125
120.70703125,-74.21875,-35.15625,-52.734375,-43.9453125
120.7109375,-28.3203125,-56.15234375,-44.921875,-1.46484375
120.71484375,8.30078125,-51.7578125,-46.875,-43.45703125
120.71875,-26.85546875,-30.2734375,-45.41015625,-54.19921875
120.72265625,-68.84765625,-42.96875,-36.62109375,-43.9453125
120.7265625,-43.45703125,-43.9453125,-48.33984375,-32.2265625
120.73046875,-49.31640625,-68.84765625,-56.15234375,-13.671875
120.734375,-75.1953125,-5.37109375,-47.8515625,-63.96484375
120.73828125,-97.16796875,86.42578125,-41.015625,-79.58984375
120.7421875,-95.21484375,-5.37109375,-45.8984375,-63.96484375
120.74609375,-67.3828125,-42.96875,-49.31640625,-73.73046875
120.75,-101.5625,-43.9453125,-46.38671875,-109.375
120.75390625,-139.16015625,-37.109375,-38.57421875,-121.09375
120.7578125,-55.17578125,-27.83203125,-42.48046875,-67.87109375
120.76171875,-41.015625,-73.2421875,-48.828125,-53.7109375
120.765625,-92.28515625,-64.94140625,-43.45703125,-64.453125
120.76953125,-89.84375,-36.62109375,-43.45703125,-108.88671875
120.7734375,-117.67578125,-30.2734375,-44.921875,-114.74609375
120.77734375,-102.05078125,12.20703125,-48.33984375,-82.03125
120.78125,-90.33203125,-18.5546875,-48.828125,-141.11328125
120.78515625,-145.5078125,-49.8046875,-48.828125,-122.0703125
120.7890625,-127.9296875,-28.3203125,-53.7109375,-111.81640625
120.79296875,-64.453125,-43.9453125,-55.17578125,-95.21484375
120.796875,-41.015625,-73.2421875,-57.6171875,-28.3203125
120.80078125,-67.3828125,-57.6171875,-56.640625,-67.3828125
120.8046875,-115.72265625,-53.22265625,-52.734375,-130.859375
120.80859375,-64.94140625,-78.61328125,-61.03515625,-105.95703125
120.8125,-16.6015625,-62.5,-67.87109375,-47.8515625
120.81640625,-54.19921875,-7.32421875,-68.84765625,-53.7109375
120.8203125,-110.3515625,-20.01953125,-65.91796875,-93.26171875
120.82421875,-104.98046875,-41.015625,-63.96484375,-62.5
120.828125,-22.94921875,-48.33984375,-68.359375,-31.25
120.83203125,-33.203125,-52.734375,-78.125,-59.5703125
120.8359375,-104.98046875,-37.59765625,-73.73046875,-72.75390625
120.83984375,-104.98046875,-47.8515625,-63.4765625,-47.36328125
120.84375,-52.734375,-65.4296875,-57.6171875,-16.11328125
120.84765625,-33.69140625,-70.80078125,-58.10546875,-41.50390625
120.8515625,-74.70703125,-76.66015625,-63.4765625,-74.70703125
120.85546875,-56.640625,-68.84765625,-62.01171875,-38.0859375
120.859375,0.48828125,-45.41015625,-58.10546875,-23.92578125
120.86328125,-0.9765625,-12.20703125,-58.59375,-32.71484375
120.8671875,-38.0859375,-32.2265625,-60.546875,-50.29296875
120.87109375,-61.03515625,-46.875,-63.4765625,-65.91796875
120.875,-39.55078125,-74.21875,-55.6640625,-21.97265625
120.87890625,-17.08984375,-107.91015625,-53.22265625,-6.8359375
120.8828125,-40.0390625,-64.94140625,-59.5703125,-23.92578125
120.88671875,-104.4921875,-61.03515625,-57.6171875,-41.50390625
120.890625,-70.80078125,-77.1484375,-65.91796875,-51.7578125
120.89453125,13.18359375,-62.98828125,-64.453125,-33.69140625
120.8984375,10.7421875,-41.9921875,-49.31640625,-5.859375
120.90234375,-57.12890625,-59.08203125,-48.828125,-55.6640625
120.90625,-58.59375,-29.296875,-57.12890625,-64.453125
120.91015625,-4.39453125,2.44140625,-55.6640625,-18.06640625
120.9140625,-39.55078125,-62.5,-46.38671875,-73.2421875
120.91796875,-78.61328125,-131.8359375,-46.875,-113.76953125
120.921875,-62.5,-78.125,-56.15234375,-48.828125
120.92578125,-22.94921875,-22.4609375,-48.33984375,10.7421875
120.9296875,-15.625,-69.3359375,-48.33984375,-2.44140625
120.93359375,-59.5703125,-79.1015625,-57.6171875,-35.15625
120.9375,-83.0078125,-27.83203125,-57.12890625,-72.75390625
120.94140625,-72.75390625,-44.43359375,-52.734375,-86.9140625
120.9453125,-9.27734375,-51.26953125,-52.24609375,-50.29296875
120.94921875,-37.59765625,-35.15625,-57.6171875,-78.125
120.953125,-88.8671875,-32.2265625,-58.59375,-91.30859375
120.95703125,-1.953125,-20.99609375,-55.17578125,-17.08984375
120.9609375,29.296875,-8.30078125,-62.5,-33.69140625
120.96484375,-23.4375,-37.109375,-62.5,-40.52734375
120.96875,-46.875,-42.48046875,-56.15234375,-50.78125
120.97265625,-37.109375,-47.36328125,-53.22265625,-37.59765625
120.9765625,-8.30078125,-52.24609375,-54.19921875,5.37109375
120.98046875,-0.9765625,-42.48046875,-47.8515625,-12.20703125
120.984375,-48.828125,-59.5703125,-36.62109375,-60.546875
120.98828125,-64.453125,-74.70703125,-47.36328125,-60.546875
120.9921875,15.625,-64.453125,-52.734375,-1.953125
120.99609375,38.0859375,-27.83203125,-50.78125,-23.4375
121.0,-26.3671875,-19.53125,-52.734375,-55.17578125
121.00390625,-38.0859375,-35.15625,-43.9453125,-56.15234375
121.0078125,-23.4375,-38.57421875,-45.41015625,-40.0390625
121.01171875,9.27734375,-16.6015625,-54.6875,-33.203125
121.015625,-16.11328125,-67.87109375,-47.36328125,-56.15234375
121.01953125,-90.33203125,-89.84375,-46.38671875,-30.76171875
121.0234375,-65.4296875,-45.41015625,-49.8046875,-15.13671875
121.02734375,-4.8828125,-39.0625,-43.9453125,-22.94921875
121.03125,-25.390625,-28.80859375,-45.8984375,-32.2265625
121.03515625,-68.359375,-68.84765625,-45.41015625,-72.75390625
121.0390625,-5.859375,-73.2421875,-48.33984375,-49.31640625
121.04296875,12.6953125,-41.015625,-49.8046875,-31.73828125
121.046875,-22.94921875,-47.8515625,-47.36328125,-31.73828125
121.05078125,-16.11328125,-19.53125,-41.015625,-9.765625
121.0546875,-28.3203125,-35.64453125,-38.57421875,-30.76171875
121.05859375,-19.53125,-70.80078125,-49.8046875,-41.015625
121.0625,-3.90625,-45.8984375,-47.36328125,-39.55078125
121.06640625,-42.48046875,-41.9921875,-40.52734375,-53.7109375
121.0703125,-83.49609375,-35.15625,-44.43359375,-61.5234375
121.07421875,-47.36328125,-30.76171875,-38.57421875,-46.875
121.078125,4.8828125,-44.43359375,-39.0625,-20.01953125
121.08203125,3.90625,-39.55078125,-55.6640625,-61.5234375
121.0859375,-54.6875,-21.97265625,-64.453125,-72.265625
121.08984375,-17.578125,-29.78515625,-49.31640625,-14.16015625
121.09375,4.39453125,-48.33984375,-43.45703125,-34.1796875
121.09765625,-56.640625,-45.41015625,-46.38671875,-37.59765625
121.1015625,-85.9375,-38.57421875,-47.36328125,-45.8984375
121.10546875,-82.03125,-35.15625,-42.48046875,-93.75
121.109375,-42.48046875,-36.1328125,-32.2265625,-51.7578125
121.11328125,-14.6484375,-26.3671875,-40.0390625,4.39453125
121.1171875,-44.921875,-0.48828125,-45.41015625,-35.15625
121.12109375,-54.6875,-18.06640625,-46.38671875,-48.828125
121.125,-22.4609375,-44.43359375,-49.31640625,-37.59765625
121.12890625,-28.3203125,-52.24609375,-54.19921875,-38.57421875
121.1328125,-87.890625,-56.15234375,-52.24609375,-47.8515625
121.13671875,-113.76953125,-43.45703125,-41.50390625,-50.29296875
121.140625,-51.7578125,-46.875,-44.43359375,-32.71484375
121.14453125,-13.18359375,-52.24609375,-55.6640625,-30.2734375
121.1484375,22.4609375,-38.0859375,-54.19921875,-30.2734375
121.15234375,8.30078125,-53.7109375,-50.29296875,-69.82421875
121.15625,-80.56640625,-16.6015625,-47.36328125,-48.33984375
121.16015625,-76.171875,4.8828125,-40.52734375,10.25390625
121.1640625,-40.0390625,-60.05859375,-43.9453125,-30.2734375
121.16796875,-71.2890625,-83.49609375,-51.7578125,-82.51953125
121.171875,-123.046875,-92.28515625,-47.8515625,-62.98828125
121.17578125,-48.828125,-49.8046875,-52.24609375,-11.23046875
121.1796875,16.6015625,-2.44140625,-50.78125,-27.83203125
121.18359375,-8.7890625,-14.6484375,-47.36328125,-31.25
121.1875,-63.96484375,-60.05859375,-49.8046875,-54.6875
121.19140625,-32.2265625,-51.7578125,-46.38671875,-28.3203125
121.1953125,-15.625,-86.42578125,-49.8046875,-0.9765625
121.19921875,-80.56640625,-138.18359375,-55.17578125,-39.55078125
121.203125,-88.8671875,-80.56640625,-45.41015625,-27.83203125
121.20703125,-63.96484375,-61.5234375,-40.52734375,-22.4609375
121.2109375,-29.296875,-63.4765625,-45.41015625,-38.0859375
121.21484375,-36.62109375,-62.98828125,-40.52734375,-62.98828125
121.21875,-52.734375,-37.109375,-37.59765625,-61.03515625
121.22265625,-51.7578125,-25.390625,-47.36328125,-20.99609375
121.2265625,-7.32421875,-32.71484375,-49.8046875,-10.25390625
121.23046875,11.23046875,-26.3671875,-47.8515625,-4.39453125
121.234375,-61.5234375,-32.2265625,-51.26953125,-40.52734375
121.23828125,-63.96484375,-37.59765625,-40.52734375,-56.640625
121.2421875,1.46484375,-56.15234375,-39.0625,10.7421875
121.24609375,26.3671875,-93.75,-47.8515625,1.953125
121.25,-48.828125,-73.2421875,-38.0859375,-83.49609375
121.25390625,-103.02734375,-90.8203125,-34.1796875,-80.56640625
121.2578125,-65.91796875,-152.34375,-38.57421875,-26.3671875
121.26171875,29.78515625,-64.94140625,-39.55078125,-14.16015625
121.265625,39.55078125,-0.9765625,-36.1328125,-43.9453125
121.26953125,-52.734375,-19.04296875,-41.015625,-41.015625
121.2734375,-76.66015625,-20.99609375,-43.45703125,-11.71875
121.27734375,-19.04296875,-29.296875,-39.0625,-6.8359375
121.28125,-4.39453125,-36.1328125,-40.0390625,-41.50390625
121.28515625,-58.10546875,-34.1796875,-50.29296875,-85.44921875
121.2890625,-33.203125,-51.26953125,-54.19921875,-94.23828125
121.29296875,5.859375,-84.9609375,-50.29296875,-27.34375
121.296875,-13.671875,-96.6796875,-38.57421875,-32.2265625
121.30078125,-60.546875,-62.98828125,-39.0625,-78.61328125
121.3046875,-51.7578125,-16.6015625,-45.41015625,-18.5546875
121.30859375,4.8828125,-1.953125,-39.0625,-36.62109375
121.3125,-3.90625,-15.13671875,-34.1796875,-54.6875
121.31640625,-61.5234375,-50.78125,-43.45703125,-142.08984375
121.3203125,-118.1640625,-71.2890625,-48.33984375,-182.12890625
121.32421875,-67.87109375,-62.5,-43.45703125,-45.8984375
121.328125,-14.6484375,-67.3828125,-41.015625,-3.41796875
121.33203125,-57.6171875,-54.6875,-48.33984375,-17.578125
121.3359375,-72.75390625,-35.15625,-48.33984375,-43.9453125
121.33984375,-59.5703125,-43.9453125,-30.76171875,-94.7265625
121.34375,-27.34375,-36.62109375,-26.85546875,-52.734375
121.34765625,-0.9765625,-34.1796875,-36.62109375,9.27734375
121.3515625,-13.671875,-67.87109375,-34.1796875,-43.9453125
121.35546875,-48.33984375,-82.03125,-30.2734375,-44.921875
121.359375,-52.734375,-41.50390625,-36.1328125,10.25390625
121.36328125,-45.8984375,-23.92578125,-30.2734375,-12.6953125
121.3671875,-95.21484375,-45.41015625,-27.34375,-58.59375
121.37109375,-104.98046875,-56.15234375,-33.69140625,-91.30859375
121.375,-27.83203125,-58.10546875,-44.921875,-36.1328125
121.37890625,22.4609375,-35.15625,-44.921875,42.96875
121.3828125,-22.4609375,-36.62109375,-38.0859375,12.6953125
121.38671875,-70.3125,-41.50390625,-47.36328125,-8.30078125
121.390625,-24.4140625,-42.48046875,-47.36328125,-33.203125
121.39453125,-5.37109375,-63.4765625,-42.96875,-36.1328125
121.3984375,-53.22265625,-53.22265625,-41.50390625,-28.80859375
121.40234375,-88.37890625,-49.31640625,-40.52734375,-56.15234375
121.40625,-70.3125,-38.57421875,-43.9453125,-17.578125
121.41015625,-50.29296875,-38.57421875,-42.96875,8.7890625
121.4140625,-54.19921875,-43.45703125,-46.38671875,-7.8125
121.41796875,-55.17578125,-42.96875,-47.8515625,-19.53125
121.421875,-61.5234375,-35.64453125,-45.41015625,-34.1796875
121.42578125,-10.25390625,-19.53125,-40.52734375,-8.30078125
121.4296875,-20.01953125,-26.3671875,-35.15625,-7.32421875
121.43359375,-92.7734375,-46.38671875,-34.1796875,-39.0625
121.4375,-95.21484375,-48.33984375,-41.50390625,-64.94140625
121.44140625,-54.19921875,-33.203125,-45.8984375,-51.7578125
121.4453125,15.13671875,-32.71484375,-45.8984375,17.08984375
121.44921875,-19.04296875,-36.1328125,-53.22265625,-12.20703125
121.453125,-85.9375,-18.06640625,-52.24609375,-47.36328125
121.45703125,-113.28125,-30.2734375,-46.875,-27.34375
121.4609375,-76.66015625,-55.17578125,-46.38671875,-19.53125
121.46484375,-44.43359375,-65.91796875,-45.8984375,-25.87890625
121.46875,-72.75390625,-42.96875,-49.31640625,-37.109375
121.47265625,-62.5,-21.484375,-41.50390625,-52.24609375
121.4765625,-37.109375,-95.21484375,-32.71484375,-44.921875
121.48046875,-37.59765625,-81.0546875,-36.62109375,-38.57421875
121.484375,-53.7109375,-10.25390625,-43.9453125,-30.2734375
121.48828125,-53.7109375,-30.76171875,-45.8984375,-10.25390625
121.4921875,-4.8828125,-30.76171875,-45.8984375,15.625
121.49609375,-7.8125,-40.0390625,-41.015625,0.48828125
121.5,-63.4765625,-61.03515625,-36.62109375,-19.53125
121.50390625,-39.0625,-50.78125,-40.52734375,-16.6015625
121.5078125,7.8125,-34.1796875,-40.52734375,-6.34765625
121.51171875,31.73828125,-37.59765625,-36.62109375,7.8125
121.515625,7.8125,-25.87890625,-40.52734375,26.3671875
121.51953125,-12.20703125,-49.31640625,-38.57421875,44.43359375
121.5234375,-5.37109375,-88.8671875,-32.71484375,49.8046875
121.52734375,-23.4375,-78.125,-27.34375,47.36328125
121.53125,-21.97265625,-42.48046875,-31.73828125,30.76171875
121.53515625,-19.04296875,-47.36328125,-40.52734375,26.3671875
121.5390625,-29.78515625,-83.0078125,-39.55078125,-7.32421875
121.54296875,12.6953125,-46.875,-40.0390625,1.46484375
121.546875,39.55078125,-39.55078125,-41.50390625,33.69140625
121.55078125,-29.296875,-55.6640625,-36.62109375,-18.06640625
121.5546875,-53.7109375,-35.64453125,-33.69140625,-29.78515625
121.55859375,-17.08984375,-41.015625,-33.69140625,-37.109375
121.5625,11.71875,-53.7109375,-30.76171875,-40.52734375
121.56640625,6.34765625,-27.83203125,-31.73828125,22.94921875
121.5703125,-48.33984375,-7.32421875,-37.109375,20.5078125
121.57421875,-28.80859375,-41.9921875,-33.203125,-3.90625
121.578125,26.85546875,-76.66015625,-31.25,15.13671875
121.58203125,-0.48828125,-46.875,-37.109375,-3.41796875
121.5859375,-17.08984375,-28.80859375,-45.8984375,-53.22265625
121.58984375,-19.53125,-24.90234375,-40.0390625,-13.18359375
121.59375,-18.06640625,-32.2265625,-29.296875,-4.8828125
121.59765625,-36.62109375,-76.171875,-31.25,-48.828125
121.6015625,-71.77734375,-63.96484375,-34.1796875,-45.8984375
121.60546875,-33.69140625,-41.015625,-34.1796875,-17.08984375
121.609375,-8.7890625,-46.38671875,-38.57421875,38.57421875
121.61328125,-11.71875,-40.0390625,-38.57421875,28.3203125
121.6171875,-55.17578125,-24.4140625,-32.71484375,-26.85546875
121.62109375,-70.80078125,-20.01953125,-37.59765625,-33.69140625
121.625,-5.37109375,-34.1796875,-40.0390625,-20.01953125
121.62890625,4.8828125,-45.41015625,-39.0625,-15.13671875
121.6328125,-56.640625,-59.08203125,-38.0859375,-38.57421875
121.63671875,-50.78125,-52.24609375,-36.1328125,-56.15234375
121.640625,-27.83203125,-25.87890625,-38.57421875,-30.2734375
121.64453125,-36.1328125,-16.6015625,-36.1328125,-25.390625
121.6484375,-8.30078125,-37.109375,-31.73828125,-24.90234375
121.65234375,-28.80859375,-42.48046875,-32.71484375,-57.12890625
121.65625,-45.41015625,-33.203125,-40.0390625,-66.40625
121.66015625,35.64453125,-18.06640625,-43.45703125,-23.92578125
121.6640625,44.43359375,-13.18359375,-35.64453125,3.41796875
121.66796875,-44.43359375,-36.1328125,-36.1328125,-6.8359375
121.671875,-98.14453125,-53.22265625,-42.48046875,-52.24609375
121.67578125,-28.80859375,-95.703125,-34.1796875,-17.578125
121.6796875,41.015625,-125.0,-32.71484375,-3.90625
121.68359375,-23.4375,-55.6640625,-40.52734375,-44.921875
121.6875,-71.2890625,-48.828125,-40.0390625,-40.52734375
121.69140625,-47.8515625,-41.50390625,-40.0390625,-37.109375
121.6953125,-1.953125,-13.671875,-42.48046875,-37.59765625
121.69921875,-10.7421875,-24.90234375,-46.875,-27.34375
121.703125,-60.05859375,-26.3671875,-46.875,-18.06640625
121.70703125,-39.55078125,-13.671875,-46.38671875,-24.90234375
121.7109375,29.296875,-12.6953125,-39.55078125,-17.578125
121.71484375,8.30078125,-64.94140625,-25.87890625,-21.97265625
121.71875,-48.828125,-104.00390625,-27.83203125,-50.29296875
121.72265625,-70.80078125,-57.12890625,-34.66796875,-42.96875
121.7265625,-43.9453125,-45.8984375,-36.1328125,-48.33984375
121.73046875,-24.4140625,-57.12890625,-40.0390625,-54.19921875
121.734375,-79.58984375,-52.734375,-41.9921875,-62.01171875
121.73828125,-71.77734375,-34.1796875,-41.9921875,-63.96484375
121.7421875,-8.7890625,-27.34375,-42.48046875,-19.04296875
121.74609375,-1.46484375,-53.22265625,-42.96875,5.37109375
121.75,-33.203125,-31.73828125,-40.0390625,-9.27734375
121.75390625,-52.734375,-35.64453125,-35.64453125,-10.25390625
121.7578125,-17.08984375,-51.26953125,-46.875,-30.76171875
121.76171875,6.8359375,-39.55078125,-47.36328125,-49.8046875
121.765625,-17.578125,-64.94140625,-41.50390625,-35.15625
121.76953125,-62.98828125,-36.62109375,-46.875,-62.98828125
121.7734375,-39.0625,-36.1328125,-41.015625,-75.68359375
121.77734375,-17.08984375,-87.40234375,-31.73828125,-65.91796875
121.78125,-27.83203125,-49.31640625,-39.55078125,-67.3828125
121.78515625,-77.63671875,-44.43359375,-51.26953125,-80.078125
121.7890625,-103.515625,-60.05859375,-50.29296875,-56.15234375
121.79296875,11.71875,-27.83203125,-50.29296875,-67.3828125
121.796875,23.92578125,-0.48828125,-53.22265625,-84.9609375
121.80078125,-42.96875,-23.92578125,-55.17578125,-52.734375
121.8046875,-29.78515625,-50.78125,-59.08203125,-45.41015625
121.80859375,-10.7421875,-10.25390625,-65.91796875,-37.59765625
121.8125,-20.99609375,-21.97265625,-61.03515625,-35.15625
121.81640625,-62.01171875,-58.10546875,-41.9921875,-52.734375
121.8203125,-70.3125,-42.48046875,-39.0625,-76.66015625
121.82421875,-67.3828125,-32.2265625,-45.41015625,-54.6875
121.828125,-44.921875,-33.203125,-41.50390625,-35.15625
121.83203125,-44.43359375,-37.59765625,-39.0625,-66.40625
121.8359375,-74.70703125,-53.7109375,-37.59765625,-87.40234375
121.83984375,-61.5234375,-43.9453125,-41.50390625,-56.15234375
121.84375,-24.90234375,-39.0625,-44.43359375,-20.5078125
121.84765625,-20.99609375,-46.875,-50.78125,-20.01953125
121.8515625,-72.265625,-42.96875,-54.6875,-41.50390625
121.85546875,-45.8984375,-53.7109375,-49.31640625,-39.0625
121.859375,-13.18359375,-45.41015625,-44.921875,-32.2265625
121.86328125,-22.4609375,-11.71875,-47.36328125,-24.90234375
121.8671875,-22.94921875,-7.32421875,-45.41015625,-24.4140625
121.87109375,-34.1796875,-47.36328125,-37.109375,-62.98828125
121.875,-37.109375,-71.77734375,-37.59765625,-70.3125
121.87890625,2.9296875,-39.55078125,-40.0390625,-66.89453125
121.8828125,-0.48828125,-29.78515625,-44.921875,-40.0390625
121.88671875,-69.82421875,-29.78515625,-54.19921875,-4.8828125
121.890625,-56.640625,-39.0625,-55.6640625,-15.13671875
121.89453125,-10.7421875,-65.91796875,-53.7109375,-20.99609375
121.8984375,-34.66796875,-60.546875,-48.33984375,-51.7578125
121.90234375,-68.359375,-33.69140625,-43.9453125,-72.265625
121.90625,-52.734375,-27.34375,-45.8984375,-69.3359375
121.91015625,-29.78515625,-34.1796875,-46.875,-35.15625
121.9140625,-22.4609375,-30.2734375,-53.7109375,-59.08203125
121.91796875,-51.26953125,-17.08984375,-50.29296875,-61.5234375
121.921875,-54.6875,-6.34765625,-41.015625,-13.18359375
121.92578125,-36.1328125,-27.34375,-41.015625,-20.5078125
121.9296875,2.44140625,-87.40234375,-40.0390625,-47.36328125
121.93359375,-32.2265625,-94.23828125,-45.41015625,-65.4296875
121.9375,-115.234375,-28.3203125,-52.24609375,-37.59765625
121.94140625,-78.61328125,-3.90625,-49.31640625,-18.5546875
121.9453125,-39.55078125,-16.6015625,-44.921875,-28.3203125
121.94921875,-85.9375,-15.625,-41.015625,-83.49609375
121.953125,-115.72265625,-34.1796875,-43.45703125,-79.58984375
121.95703125,-64.94140625,-73.2421875,-46.38671875,-40.52734375
121.9609375,-2.9296875,-58.59375,-47.36328125,-36.62109375
121.96484375,-4.8828125,-22.4609375,-49.8046875,-51.7578125
121.96875,-93.26171875,-42.96875,-50.29296875,-86.9140625
121.97265625,-105.95703125,-60.05859375,-48.33984375,-50.29296875
121.9765625,-29.296875,-45.41015625,-46.38671875,-27.34375
121.98046875,-43.9453125,-43.45703125,-57.6171875,-57.6171875
121.984375,-98.6328125,-46.875,-63.4765625,-106.4453125
121.98828125,-124.51171875,-44.43359375,-54.6875,-116.69921875
121.9921875,-115.234375,-46.38671875,-53.22265625,-83.49609375
121.99609375,-92.28515625,-52.24609375,-56.640625,-91.796875
122.0,-161.1328125,-58.10546875,-59.08203125,-159.1796875
122.00390625,-200.68359375,-42.48046875,-49.8046875,-198.73046875
122.0078125,-182.6171875,-39.55078125,-40.52734375,-184.08203125
122.01171875,-209.47265625,-41.9921875,-46.38671875,-198.2421875
122.015625,-231.4453125,-19.04296875,-48.33984375,-220.21484375
122.01953125,-257.8125,-27.34375,-51.7578125,-292.48046875
122.0234375,-276.3671875,-31.73828125,-45.41015625,-323.73046875
122.02734375,-245.1171875,-14.16015625,-31.73828125,-256.34765625
122.03125,-245.60546875,-26.85546875,-34.1796875,-227.05078125
122.03515625,-254.8828125,-46.875,-29.78515625,-262.6953125
122.0390625,-234.86328125,-44.921875,-26.85546875,-267.578125
122.04296875,-190.4296875,-54.19921875,-36.1328125,-190.91796875
122.046875,-166.015625,-56.15234375,-41.50390625,-189.94140625
122.05078125,-213.37890625,-23.92578125,-44.43359375,-219.23828125
122.0546875,-218.26171875,0.9765625,-41.9921875,-208.0078125
122.05859375,-174.31640625,-13.671875,-32.71484375,-195.3125
122.0625,-142.08984375,-41.50390625,-32.2265625,-194.82421875
122.06640625,-152.34375,-61.5234375,-34.66796875,-182.12890625
122.0703125,-146.484375,-84.9609375,-35.15625,-168.45703125
122.07421875,-111.328125,-71.2890625,-37.59765625,-155.76171875
122.078125,-57.6171875,-28.3203125,-36.62109375,-78.61328125
122.08203125,-62.5,-22.4609375,-40.0390625,-43.45703125
122.0859375,-67.3828125,-36.1328125,-45.41015625,-85.9375
122.08984375,7.8125,-14.16015625,-46.875,-65.91796875
122.09375,25.87890625,-25.87890625,-44.921875,-16.6015625
122.09765625,-23.4375,-68.359375,-40.52734375,-55.17578125
122.1015625,-71.77734375,-64.94140625,-43.45703125,-78.125
122.10546875,-47.8515625,-42.48046875,-51.26953125,-39.0625
122.109375,13.671875,-41.9921875,-55.17578125,-10.7421875
122.11328125,48.828125,-59.5703125,-51.7578125,13.671875
122.1171875,0.0,-47.36328125,-53.7109375,-5.37109375
122.12109375,-26.3671875,-20.99609375,-56.15234375,3.90625
122.125,41.50390625,-38.57421875,-55.6640625,34.66796875
122.12890625,83.0078125,-52.734375,-57.12890625,41.015625
122.1328125,32.71484375,-42.96875,-55.17578125,-7.32421875
122.13671875,29.296875,-17.08984375,-52.24609375,-20.01953125
122.140625,83.0078125,-6.8359375,-52.24609375,44.921875
122.14453125,71.2890625,-32.2265625,-51.7578125,68.84765625
122.1484375,38.57421875,-66.89453125,-51.7578125,27.34375
122.15234375,0.48828125,-58.10546875,-47.36328125,0.9765625
122.15625,4.39453125,-35.64453125,-44.43359375,12.20703125
122.16015625,58.10546875,-59.5703125,-46.875,42.48046875
122.1640625,35.64453125,-80.56640625,-42.96875,41.9921875
122.16796875,-6.34765625,-48.828125,-41.9921875,0.9765625
122.171875,6.34765625,5.859375,-43.9453125,-24.4140625
122.17578125,34.66796875,-25.390625,-50.78125,48.828125
122.1796875,57.12890625,-63.4765625,-64.94140625,82.03125
122.18359375,7.32421875,-35.64453125,-64.94140625,35.64453125
122.1875,-19.04296875,-22.94921875,-51.7578125,-10.25390625
122.19140625,-6.8359375,-44.43359375,-46.875,-11.71875
122.1953125,25.390625,-42.96875,-46.38671875,40.52734375
122.19921875,13.671875,-24.4140625,-43.9453125,23.4375
122.203125,-17.578125,-31.25,-41.50390625,18.06640625
122.20703125,20.5078125,-54.19921875,-43.45703125,47.8515625
122.2109375,83.0078125,-40.0390625,-54.19921875,91.30859375
122.21484375,63.96484375,-1.953125,-58.59375,92.7734375
122.21875,-4.8828125,-38.0859375,-46.38671875,50.29296875
122.22265625,-6.34765625,-66.40625,-42.96875,37.109375
122.2265625,52.24609375,-30.76171875,-49.8046875,57.6171875
122.23046875,66.89453125,-17.08984375,-46.875,53.22265625
122.234375,-5.859375,-34.1796875,-40.52734375,23.4375
122.23828125,-38.57421875,-40.52734375,-42.96875,-4.8828125
122.2421875,19.53125,-43.45703125,-48.33984375,6.34765625
122.24609375,67.87109375,-39.0625,-44.43359375,29.296875
122.25,52.734375,-41.9921875,-48.33984375,4.8828125
122.25390625,9.765625,-35.64453125,-51.7578125,6.34765625
122.2578125,17.578125,-15.13671875,-50.78125,41.9921875
122.26171875,38.0859375,-30.2734375,-41.9921875,41.9921875
122.265625,9.765625,-36.1328125,-36.1328125,27.83203125
122.26953125,-36.1328125,-41.9921875,-43.45703125,-12.6953125
122.2734375,7.8125,-29.296875,-40.0390625,-21.484375
122.27734375,89.35546875,38.0859375,-33.69140625,40.52734375
122.28125,53.7109375,7.8125,-49.8046875,18.06640625
122.28515625,6.34765625,-27.83203125,-59.5703125,-39.55078125
122.2890625,6.34765625,-37.109375,-50.78125,-10.7421875
122.29296875,40.0390625,-51.7578125,-43.45703125,25.87890625
122.296875,44.43359375,-38.0859375,-38.0859375,18.06640625
122.30078125,-9.765625,-31.25,-36.1328125,4.8828125
122.3046875,-44.921875,-43.9453125,-37.59765625,-18.06640625
122.30859375,19.04296875,-44.921875,-36.1328125,-6.34765625
122.3125,84.47265625,-35.15625,-34.1796875,30.76171875
122.31640625,24.90234375,-35.64453125,-38.57421875,3.41796875
122.3203125,-20.5078125,-51.7578125,-42.48046875,-32.71484375
122.32421875,41.50390625,-39.55078125,-45.41015625,33.203125
122.328125,114.74609375,-33.203125,-48.33984375,48.33984375
122.33203125,72.75390625,-53.7109375,-43.45703125,3.90625
122.3359375,-32.2265625,0.0,-39.55078125,-4.8828125
122.33984375,-30.2734375,14.6484375,-44.43359375,-8.7890625
122.34375,27.83203125,-18.06640625,-50.29296875,25.87890625
122.34765625,43.45703125,-27.83203125,-47.36328125,12.20703125
122.3515625,9.765625,-40.0390625,-51.7578125,-12.6953125
122.35546875,-13.671875,-33.69140625,-51.7578125,5.859375
122.359375,40.0390625,-36.1328125,-49.31640625,28.80859375
122.36328125,65.4296875,-35.64453125,-50.29296875,27.83203125
122.3671875,24.90234375,-24.90234375,-49.31640625,8.30078125
122.37109375,-0.48828125,-31.25,-42.96875,-32.71484375
122.375,20.01953125,-49.8046875,-45.8984375,-28.80859375
122.37890625,57.12890625,-41.9921875,-51.26953125,12.6953125
122.3828125,57.6171875,-15.625,-47.8515625,-18.06640625
122.38671875,19.04296875,-26.85546875,-45.41015625,-27.83203125
122.390625,-14.6484375,-74.21875,-40.52734375,8.7890625
122.39453125,33.203125,-71.77734375,-38.0859375,20.5078125
122.3984375,27.83203125,-22.94921875,-42.48046875,-21.97265625
122.40234375,-41.50390625,-20.99609375,-53.22265625,-23.92578125
122.40625,-30.76171875,-36.1328125,-43.45703125,13.671875
122.41015625,60.05859375,-31.73828125,-30.76171875,33.203125
122.4140625,74.70703125,-18.5546875,-41.9921875,9.27734375
122.41796875,-25.390625,24.90234375,-54.19921875,-29.296875
122.421875,-32.2265625,-5.859375,-53.7109375,-23.4375
122.42578125,9.765625,-63.4765625,-43.9453125,-11.71875
122.4296875,4.8828125,-53.7109375,-37.109375,0.0
122.43359375,-28.80859375,-37.59765625,-35.15625,-20.99609375
122.4375,-25.87890625,-52.24609375,-29.296875,-8.30078125
122.44140625,-4.8828125,-64.94140625,-31.25,-6.8359375
122.4453125,24.4140625,-60.546875,-41.015625,-22.94921875
122.44921875,31.25,-39.55078125,-45.41015625,-9.27734375
122.453125,-43.9453125,-23.92578125,-44.921875,-34.1796875
122.45703125,-42.48046875,-40.52734375,-43.45703125,-19.53125
122.4609375,34.1796875,-47.8515625,-48.828125,-20.01953125
122.46484375,19.53125,-55.6640625,-53.7109375,-58.59375
122.46875,-34.1796875,-60.546875,-51.7578125,-83.0078125
122.47265625,-22.94921875,-71.77734375,-49.8046875,-57.12890625
122.4765625,0.48828125,1.46484375,-46.38671875,-21.97265625
122.48046875,-9.765625,11.71875,-49.31640625,-32.2265625
122.484375,-50.29296875,-57.6171875,-50.29296875,-55.17578125
122.48828125,-57.12890625,-59.08203125,-40.0390625,-56.640625
122.4921875,4.39453125,-55.17578125,-40.52734375,-21.484375
122.49609375,62.01171875,-31.25,-45.8984375,-19.53125
122.5,-19.04296875,-39.0625,-46.38671875,-45.8984375
122.50390625,-75.68359375,-56.640625,-51.26953125,-64.94140625
122.5078125,-21.484375,-62.5,-50.29296875,-51.7578125
122.51171875,26.3671875,-41.9921875,-40.52734375,-9.765625
122.515625,11.23046875,-69.82421875,-40.0390625,-2.44140625
122.51953125,-32.71484375,-108.88671875,-49.31640625,-31.25
122.5234375,-18.5546875,-41.015625,-41.50390625,-36.62109375
122.52734375,33.203125,-18.06640625,-34.1796875,5.37109375
122.53125,29.296875,-27.34375,-36.62109375,-11.23046875
122.53515625,-36.1328125,-41.015625,-37.109375,-66.89453125
122.5390625,-20.5078125,-52.24609375,-39.0625,-71.2890625
122.54296875,-0.9765625,-60.546875,-42.96875,-63.96484375
122.546875,-34.1796875,-55.17578125,-45.8984375,-33.69140625
122.55078125,-41.50390625,-31.25,-41.50390625,-43.9453125
122.5546875,-65.4296875,-40.52734375,-45.41015625,-54.6875
122.55859375,-41.015625,-63.96484375,-54.19921875,3.41796875
122.5625,47.8515625,-35.64453125,-51.26953125,27.34375
122.56640625,8.30078125,-15.13671875,-42.48046875,-9.27734375
122.5703125,-87.40234375,-34.66796875,-41.015625,-31.25
122.57421875,-48.33984375,-60.546875,-42.48046875,-18.5546875
122.578125,-4.8828125,-57.12890625,-41.9921875,-11.71875
122.58203125,-30.2734375,-34.1796875,-44.43359375,-11.71875
122.5859375,-20.99609375,-33.69140625,-44.921875,-2.9296875
122.58984375,3.41796875,-18.5546875,-42.48046875,5.37109375
122.59375,17.578125,-22.4609375,-41.50390625,30.2734375
122.59765625,0.9765625,-58.10546875,-41.9921875,16.11328125
122.6015625,-39.0625,-56.640625,-53.22265625,-20.01953125
122.60546875,-15.13671875,-18.06640625,-61.03515625,-0.48828125
122.609375,37.59765625,-3.41796875,-54.6875,2.9296875
122.61328125,26.3671875,-10.7421875,-43.9453125,-0.9765625
122.6171875,-56.640625,-86.9140625,-40.0390625,-24.90234375
122.62109375,-89.35546875,-79.58984375,-42.48046875,-21.97265625
122.625,-58.59375,-40.0390625,-49.8046875,-7.32421875
122.62890625,-27.34375,-68.84765625,-47.36328125,-1.46484375
122.6328125,-62.01171875,-51.7578125,-39.55078125,-40.0390625
122.63671875,-98.14453125,-35.64453125,-47.36328125,-61.03515625
122.640625,-58.59375,-50.29296875,-48.33984375,-9.27734375
122.64453125,-11.71875,-41.015625,-47.8515625,-9.27734375
122.6484375,-18.5546875,-16.11328125,-49.31640625,-36.1328125
122.65234375,-95.21484375,-33.69140625,-48.828125,-58.10546875
122.65625,-83.984375,-20.99609375,-53.22265625,-52.734375
122.66015625,-22.4609375,-4.39453125,-50.78125,-35.64453125
122.6640625,-39.0625,-16.11328125,-50.78125,-26.3671875
122.66796875,-76.171875,-30.76171875,-56.15234375,-7.8125
122.671875,-73.2421875,-42.48046875,-47.36328125,-42.48046875
122.67578125,-28.80859375,-15.625,-47.36328125,-36.62109375
122.6796875,15.13671875,-27.34375,-44.921875,-7.32421875
122.68359375,-39.0625,-64.94140625,-41.50390625,-31.25
122.6875,-60.546875,-70.3125,-46.38671875,-20.5078125
122.69140625,-20.5078125,-44.43359375,-49.31640625,-3.90625
122.6953125,-5.859375,-33.203125,-52.24609375,-30.76171875
122.69921875,-32.2265625,-52.734375,-52.734375,-53.22265625
122.703125,-78.61328125,-49.31640625,-48.33984375,-36.1328125
122.70703125,-75.1953125,-48.33984375,-43.45703125,-23.92578125
122.7109375,-32.2265625,-35.15625,-42.48046875,-16.6015625
122.71484375,-2.44140625,-31.25,-43.45703125,-23.92578125
122.71875,-36.1328125,-28.80859375,-47.8515625,-43.45703125
122.72265625,-83.49609375,-26.3671875,-49.8046875,-29.78515625
122.7265625,-42.96875,-35.15625,-45.41015625,-10.7421875
122.73046875,-34.1796875,-46.38671875,-42.96875,-54.19921875
122.734375,-99.12109375,-53.22265625,-43.45703125,-88.37890625
122.73828125,-100.5859375,-37.59765625,-44.43359375,-47.36328125
122.7421875,-41.50390625,-49.8046875,-51.26953125,-35.15625
122.74609375,-15.13671875,-56.640625,-56.15234375,-68.84765625
122.75,-41.015625,-33.69140625,-55.17578125,-55.17578125
122.75390625,-65.91796875,-56.15234375,-52.24609375,-46.38671875
122.7578125,-45.8984375,-96.6796875,-51.26953125,-56.640625
122.76171875,8.30078125,-76.171875,-56.15234375,-65.91796875
122.765625,-5.37109375,-42.48046875,-58.59375,-68.84765625
122.76953125,-83.0078125,-32.2265625,-49.8046875,-39.55078125
122.7734375,-85.9375,-38.0859375,-45.8984375,-32.2265625
122.77734375,-26.3671875,-46.38671875,-47.36328125,-14.16015625
122.78125,-21.484375,-27.34375,-42.96875,-29.78515625
122.78515625,-41.50390625,-28.3203125,-43.9453125,-65.4296875
122.7890625,-33.203125,-41.015625,-43.9453125,-39.55078125
122.79296875,-27.34375,-26.85546875,-48.828125,-14.16015625
122.796875,-48.33984375,-86.9140625,-51.26953125,-60.05859375
122.80078125,-79.58984375,-98.14453125,-47.8515625,-101.5625
122.8046875,-60.546875,-48.33984375,-45.8984375,-68.359375
122.80859375,-25.390625,-47.8515625,-48.33984375,-23.92578125
122.8125,-5.37109375,-20.5078125,-59.08203125,2.44140625
122.81640625,-52.734375,-23.92578125,-55.17578125,-31.73828125
122.8203125,-102.5390625,-49.8046875,-55.17578125,-63.4765625
122.82421875,-43.45703125,-41.015625,-62.5,-29.78515625
122.828125,19.53125,-18.5546875,-60.05859375,-1.953125
122.83203125,-14.6484375,-15.625,-55.6640625,-44.43359375
122.8359375,-71.77734375,-9.27734375,-48.828125,-78.61328125
122.83984375,-70.80078125,-28.80859375,-45.8984375,-47.36328125
122.84375,-55.17578125,-57.6171875,-52.24609375,-17.578125
122.84765625,-41.9921875,-41.9921875,-53.22265625,-29.78515625
122.8515625,-81.54296875,-44.921875,-52.734375,-62.5
122.85546875,-117.67578125,-63.96484375,-53.7109375,-94.7265625
122.859375,-25.390625,-55.6640625,-50.29296875,-38.0859375
122.86328125,35.15625,-23.4375,-54.6875,-1.46484375
122.8671875,-48.828125,-41.50390625,-53.7109375,-64.453125
122.87109375,-97.16796875,-51.7578125,-45.41015625,-63.96484375
122.875,-57.12890625,-29.78515625,-41.9921875,-22.4609375
122.87890625,-19.53125,-29.296875,-43.9453125,-17.578125
122.8828125,-51.7578125,-32.2265625,-45.8984375,-41.9921875
122.88671875,-96.6796875,-23.92578125,-46.875,-73.2421875
122.890625,-57.12890625,-30.2734375,-47.8515625,-40.0390625
122.89453125,16.11328125,-13.18359375,-47.8515625,-24.4140625
122.8984375,-43.9453125,4.8828125,-54.19921875,-50.29296875
122.90234375,-108.88671875,-19.04296875,-58.10546875,-67.87109375
122.90625,-79.58984375,-18.5546875,-52.24609375,-56.15234375
122.91015625,-35.15625,-38.0859375,-48.828125,-27.34375
122.9140625,-31.25,-65.4296875,-44.921875,-29.296875
122.91796875,-64.453125,-59.5703125,-45.41015625,-50.29296875
122.921875,-88.8671875,-59.5703125,-47.36328125,-60.05859375
122.92578125,-58.59375,-41.50390625,-45.8984375,-36.62109375
122.9296875,-19.04296875,-10.7421875,-46.875,-52.24609375
122.93359375,-76.66015625,-21.97265625,-44.43359375,-69.82421875
122.9375,-125.9765625,-29.296875,-43.9453125,-65.4296875
122.94140625,-81.0546875,-49.8046875,-41.9921875,-46.38671875
122.9453125,-14.6484375,-50.29296875,-42.96875,-45.41015625
122.94921875,-24.90234375,-33.69140625,-51.26953125,-58.10546875
122.953125,-52.734375,-36.1328125,-45.8984375,-52.734375
122.95703125,-57.6171875,-21.484375,-41.50390625,-66.89453125
122.9609375,-74.21875,-30.2734375,-38.57421875,-41.50390625
122.96484375,-75.1953125,-45.41015625,-36.62109375,-32.2265625
122.96875,-89.35546875,-48.33984375,-39.55078125,-58.10546875
122.97265625,-44.921875,-49.31640625,-41.015625,-40.0390625
122.9765625,40.52734375,-38.0859375,-42.96875,-5.37109375
122.98046875,16.11328125,-18.5546875,-42.48046875,-29.296875
122.984375,-45.8984375,-31.73828125,-38.0859375,-60.546875
122.98828125,-38.0859375,-50.29296875,-39.0625,-58.10546875
122.9921875,7.8125,-46.38671875,-42.48046875,-5.859375
122.99609375,18.06640625,-42.48046875,-41.50390625,11.71875
123.0,-60.05859375,-45.41015625,-40.0390625,-37.109375
123.00390625,-77.63671875,-55.6640625,-38.0859375,-44.43359375
123.0078125,-12.20703125,-63.4765625,-39.0625,-40.52734375
123.01171875,40.52734375,-62.01171875,-42.96875,-8.30078125
123.015625,7.32421875,-60.546875,-42.48046875,-12.20703125
123.01953125,-61.03515625,-69.82421875,-31.73828125,-46.38671875
123.0234375,-6.34765625,-57.12890625,-29.78515625,-40.0390625
123.02734375,37.59765625,-39.0625,-36.62109375,-28.3203125
123.03125,-42.96875,-37.109375,-41.9921875,-33.69140625
123.03515625,-104.00390625,-57.6171875,-36.1328125,-72.75390625
123.0390625,-87.40234375,-65.91796875,-28.80859375,-82.51953125
123.04296875,-36.1328125,-39.0625,-38.57421875,-54.6875
123.046875,9.765625,-22.94921875,-48.33984375,-40.0390625
123.05078125,-36.1328125,-38.0859375,-51.26953125,-85.9375
123.0546875,-35.64453125,-62.5,-53.22265625,-47.8515625
123.05859375,-12.6953125,-52.734375,-59.08203125,-7.8125
123.0625,-51.26953125,-45.8984375,-58.10546875,-44.921875
123.06640625,-68.359375,-54.19921875,-45.8984375,-54.19921875
123.0703125,-92.28515625,-51.26953125,-47.8515625,-69.82421875
123.07421875,-76.171875,-37.109375,-48.828125,-62.01171875
123.078125,-19.04296875,-50.29296875,-49.8046875,-33.69140625
123.08203125,-5.859375,-61.5234375,-49.31640625,-81.0546875
123.0859375,-54.6875,-62.01171875,-40.52734375,-100.09765625
123.08984375,-44.43359375,-75.68359375,-41.9921875,-30.2734375
123.09375,-12.6953125,-45.8984375,-42.48046875,-16.6015625
123.09765625,-32.2265625,-17.578125,-40.52734375,-46.875
123.1015625,-68.359375,-25.87890625,-43.9453125,-62.01171875
123.10546875,-68.84765625,-35.64453125,-43.9453125,-42.48046875
123.109375,-26.3671875,-34.1796875,-43.45703125,-37.59765625
123.11328125,-23.4375,-43.9453125,-44.921875,-42.96875
123.1171875,-53.22265625,-46.875,-43.9453125,-67.87109375
123.12109375,-64.453125,-45.8984375,-41.9921875,-92.7734375
123.125,-37.109375,-58.59375,-42.48046875,-48.828125
123.12890625,-12.6953125,-64.453125,-41.9921875,-35.15625
123.1328125,-51.26953125,-49.31640625,-44.921875,-95.21484375
123.13671875,-68.84765625,-38.0859375,-47.8515625,-67.87109375
123.140625,-5.859375,-46.38671875,-50.29296875,7.32421875
123.14453125,35.64453125,-44.921875,-50.78125,-2.44140625
123.1484375,2.9296875,-34.1796875,-47.8515625,-39.0625
123.15234375,-69.3359375,-56.15234375,-44.921875,-50.29296875
123.15625,-61.03515625,-56.15234375,-41.015625,-35.15625
123.16015625,1.46484375,-30.76171875,-30.76171875,-36.1328125
123.1640625,0.9765625,-31.25,-33.203125,-29.78515625
123.16796875,-48.828125,-37.59765625,-41.015625,-46.38671875
123.171875,-73.73046875,-11.71875,-44.43359375,-50.29296875
123.17578125,-6.34765625,-28.80859375,-46.38671875,-24.90234375
123.1796875,-1.953125,-70.80078125,-39.55078125,-33.203125
123.18359375,-58.10546875,-50.29296875,-39.55078125,-55.17578125
123.1875,-88.37890625,-52.734375,-43.45703125,-61.03515625
123.19140625,-44.921875,-60.546875,-41.50390625,-49.8046875
123.1953125,0.0,-59.08203125,-44.921875,-33.69140625
123.19921875,-35.64453125,-48.33984375,-57.12890625,-43.45703125
123.203125,-51.7578125,-25.87890625,-57.12890625,-26.3671875
123.20703125,-2.9296875,-32.2265625,-41.015625,-8.7890625
123.2109375,38.0859375,-16.6015625,-30.2734375,-15.625
123.21484375,-22.94921875,-86.9140625,-33.69140625,-66.40625
123.21875,-99.609375,-173.33984375,-41.015625,-83.984375
123.22265625,-65.91796875,-71.77734375,-41.015625,-72.75390625
123.2265625,12.6953125,-26.3671875,-39.0625,-5.37109375
123.23046875,-0.9765625,-25.87890625,-42.96875,-5.37109375
123.234375,-54.6875,-20.01953125,-45.41015625,-65.4296875
123.23828125,-70.80078125,-29.296875,-48.33984375,-49.31640625
123.2421875,-32.2265625,-35.15625,-50.78125,-25.87890625
123.24609375,8.30078125,-39.55078125,-47.36328125,-21.484375
123.25,-23.92578125,-42.48046875,-47.36328125,-54.19921875
123.25390625,-45.8984375,-32.71484375,-46.38671875,-65.4296875
123.2578125,-21.484375,-73.73046875,-46.875,-36.62109375
123.26171875,29.78515625,-70.80078125,-56.15234375,-40.52734375
123.265625,-16.6015625,-23.92578125,-56.15234375,-85.44921875
123.26953125,-63.4765625,-28.3203125,-46.38671875,-99.12109375
123.2734375,-21.97265625,-33.69140625,-38.57421875,-54.19921875
123.27734375,0.0,-33.69140625,-35.64453125,-31.73828125
123.28125,-34.66796875,-41.015625,-37.59765625,-61.5234375
123.28515625,-84.9609375,-48.828125,-41.50390625,-100.09765625
123.2890625,-64.94140625,-34.66796875,-40.52734375,-84.9609375
123.29296875,-7.32421875,-41.50390625,-42.48046875,-44.43359375
123.296875,-14.16015625,-45.41015625,-45.41015625,-50.78125
123.30078125,-62.01171875,-32.71484375,-40.52734375,-74.21875
123.3046875,-41.9921875,-34.66796875,-44.921875,-65.91796875
123.30859375,5.859375,-34.66796875,-47.36328125,-40.0390625
123.3125,-0.9765625,-11.23046875,-40.0390625,-11.71875
123.31640625,-37.59765625,-92.28515625,-40.0390625,-43.9453125
123.3203125,-58.59375,-115.234375,-47.8515625,-65.4296875
123.32421875,-30.2734375,-26.3671875,-52.24609375,-36.62109375
123.328125,25.390625,-40.0390625,-47.8515625,-10.25390625
123.33203125,-18.06640625,-49.8046875,-41.50390625,-40.52734375
123.3359375,-71.2890625,-37.59765625,-44.43359375,-64.94140625
123.33984375,-58.59375,-32.2265625,-36.62109375,-50.78125
123.34375,-38.57421875,-31.25,-34.66796875,-40.0390625
123.34765625,-18.06640625,-37.59765625,-35.15625,-75.68359375
123.3515625,-67.87109375,-52.24609375,-35.15625,-89.35546875
123.35546875,-77.63671875,-93.75,-37.109375,-67.87109375
123.359375,-30.2734375,-111.328125,-41.015625,-66.89453125
123.36328125,-9.765625,-75.68359375,-45.8984375,-82.03125
123.3671875,-50.29296875,-66.89453125,-45.8984375,-83.0078125
123.37109375,-66.40625,-73.73046875,-45.8984375,-58.59375
123.375,-19.04296875,-82.51953125,-44.43359375,-38.0859375
123.37890625,8.30078125,-69.82421875,-46.875,-25.87890625
123.3828125,-47.8515625,-54.19921875,-44.921875,-44.43359375
123.38671875,-86.42578125,-44.43359375,-36.62109375,-70.3125
123.390625,-33.203125,-45.41015625,-37.59765625,-71.77734375
123.39453125,-0.48828125,-49.8046875,-42.96875,-48.33984375
123.3984375,-16.6015625,-41.9921875,-47.36328125,-39.0625
123.40234375,-72.265625,-45.41015625,-46.38671875,-74.21875
123.40625,-69.82421875,-47.8515625,-40.0390625,-67.3828125
123.41015625,-14.16015625,-57.6171875,-37.59765625,-16.6015625
123.4140625,-15.13671875,-51.26953125,-35.64453125,-36.1328125
123.41796875,-38.57421875,-10.7421875,-35.64453125,-76.171875
123.421875,-76.171875,-21.484375,-39.55078125,-97.65625
123.42578125,-45.41015625,-48.33984375,-40.0390625,-69.3359375
123.4296875,-13.18359375,-62.01171875,-42.96875,-43.9453125
123.43359375,-31.73828125,-52.734375,-49.8046875,-65.4296875
123.4375,-34.66796875,-39.55078125,-51.7578125,-77.1484375
123.44140625,-3.41796875,-61.5234375,-51.7578125,-49.8046875
123.4453125,27.83203125,-60.546875,-49.8046875,-23.4375
123.44921875,-25.390625,-51.7578125,-45.41015625,-34.66796875
123.453125,-78.61328125,-55.17578125,-50.29296875,-41.9921875
123.45703125,-73.2421875,23.4375,-49.31640625,-39.0625
123.4609375,-20.01953125,24.90234375,-49.31640625,-22.94921875
123.46484375,-9.27734375,-36.62109375,-47.8515625,-45.41015625
123.46875,-52.24609375,-47.36328125,-40.0390625,-80.078125
123.47265625,-41.9921875,-62.01171875,-39.55078125,-76.171875
123.4765625,-4.39453125,-60.05859375,-43.45703125,-40.0390625
123.48046875,-20.99609375,-49.31640625,-46.38671875,-29.78515625
123.484375,-62.98828125,-36.1328125,-45.8984375,-68.359375
123.48828125,-57.12890625,-38.0859375,-43.45703125,-70.3125
123.4921875,-3.41796875,-59.08203125,-43.45703125,-35.64453125
123.49609375,13.671875,-23.92578125,-43.9453125,-16.11328125
123.5,-52.24609375,-34.66796875,-44.43359375,-25.87890625
123.50390625,-99.609375,-79.1015625,-40.0390625,-43.45703125
123.5078125,-73.2421875,-56.15234375,-44.43359375,-49.31640625
123.51171875,-18.06640625,-65.91796875,-50.29296875,-25.87890625
123.515625,-43.9453125,-60.05859375,-45.41015625,-36.62109375
123.51953125,-98.6328125,-36.1328125,-40.0390625,-61.03515625
123.5234375,-56.640625,-34.66796875,-43.45703125,-24.4140625
123.52734375,7.32421875,-44.921875,-46.875,-4.8828125
123.53125,-23.92578125,-60.546875,-37.59765625,-34.1796875
123.53515625,-66.40625,-73.73046875,-37.109375,-58.10546875
123.5390625,-62.01171875,-64.94140625,-43.45703125,-37.109375
123.54296875,-27.34375,-41.50390625,-41.9921875,-11.71875
123.546875,-15.625,-59.5703125,-40.52734375,-34.1796875
123.55078125,-87.890625,-70.3125,-45.41015625,-75.68359375
123.5546875,-83.49609375,-74.70703125,-39.0625,-61.03515625
123.55859375,-25.87890625,-65.91796875,-36.62109375,-15.13671875
123.5625,-23.4375,-25.390625,-50.29296875,-11.71875
123.56640625,-59.5703125,-16.11328125,-50.78125,-18.5546875
123.5703125,-87.890625,-23.92578125,-42.48046875,-54.6875
123.57421875,-54.19921875,-7.8125,-45.41015625,-55.17578125
123.578125,-16.11328125,-12.20703125,-44.43359375,-29.78515625
123.58203125,-43.45703125,-33.203125,-34.66796875,-58.59375
123.5859375,-73.73046875,-38.0859375,-40.0390625,-62.98828125
123.58984375,-58.10546875,-35.64453125,-47.36328125,-21.484375
123.59375,-20.5078125,-39.0625,-45.8984375,2.44140625
123.59765625,-38.57421875,-64.94140625,-43.9453125,-20.01953125
123.6015625,-108.3984375,-59.08203125,-45.41015625,-71.77734375
123.60546875,-88.37890625,-30.76171875,-47.36328125,-69.82421875
123.609375,-17.08984375,-14.16015625,-46.875,-36.1328125
123.61328125,-35.15625,-18.06640625,-51.7578125,-43.45703125
123.6171875,-73.2421875,-10.25390625,-53.7109375,-51.26953125
123.62109375,-83.984375,-28.3203125,-49.8046875,-58.59375
123.625,-53.22265625,-44.43359375,-39.55078125,-39.55078125
123.62890625,-35.64453125,-30.2734375,-42.48046875,-50.29296875
123.6328125,-101.5625,-33.203125,-46.875,-90.33203125
123.63671875,-125.48828125,-6.34765625,-45.8984375,-76.171875
123.640625,-38.57421875,-7.8125,-46.875,-31.25
123.64453125,9.765625,-43.9453125,-39.55078125,-11.23046875
123.6484375,-77.63671875,-56.640625,-39.55078125,-46.875
123.65234375,-135.7421875,-67.87109375,-44.43359375,-87.890625
123.65625,-111.81640625,-61.5234375,-42.96875,-50.29296875
123.66015625,-68.359375,-64.453125,-43.9453125,-25.390625
123.6640625,-56.15234375,-49.8046875,-46.38671875,-61.5234375
123.66796875,-85.44921875,-23.4375,-48.828125,-58.10546875
123.671875,-96.6796875,-20.5078125,-53.22265625,-58.10546875
123.67578125,-62.5,-36.62109375,-56.640625,-40.0390625
123.6796875,-62.98828125,-43.45703125,-54.6875,-45.8984375
123.68359375,-113.28125,-41.9921875,-55.6640625,-87.890625
123.6875,-72.265625,-48.828125,-62.5,-47.8515625
123.69140625,-17.578125,-53.22265625,-66.40625,-19.04296875
123.6953125,-15.13671875,-11.71875,-58.10546875,-23.4375
123.69921875,-19.04296875,5.37109375,-46.875,-29.78515625
123.703125,-57.6171875,-40.0390625,-43.45703125,-68.84765625
123.70703125,-72.265625,-57.6171875,-47.36328125,-53.22265625
123.7109375,-42.48046875,-68.84765625,-49.8046875,-20.01953125
123.71484375,-18.5546875,-50.78125,-50.29296875,-17.08984375
123.71875,-24.90234375,-41.9921875,-48.828125,-39.0625
123.72265625,-21.484375,-60.05859375,-45.8984375,-33.203125
123.7265625,-10.7421875,-61.03515625,-44.921875,-5.859375
123.73046875,-26.85546875,-43.9453125,-47.36328125,-34.66796875
123.734375,-60.546875,0.48828125,-51.7578125,-55.17578125
123.73828125,-64.94140625,32.2265625,-48.33984375,-53.7109375
123.7421875,-9.27734375,-25.390625,-40.0390625,-29.296875
123.74609375,10.25390625,-55.17578125,-44.43359375,-53.7109375
123.75,-47.8515625,-44.921875,-50.29296875,-75.68359375
123.75390625,-54.6875,-41.015625,-48.33984375,-27.34375
123.7578125,-17.578125,-32.2265625,-50.29296875,-3.41796875
123.76171875,-16.6015625,-40.0390625,-55.6640625,-15.625
123.765625,-29.78515625,-40.52734375,-52.24609375,-63.4765625
123.76953125,-27.83203125,-35.15625,-52.24609375,-72.265625
123.7734375,-46.875,-41.9921875,-45.8984375,-42.96875
123.77734375,-44.43359375,12.6953125,-42.48046875,-49.8046875
123.78125,-34.66796875,2.9296875,-49.8046875,-57.12890625
123.78515625,-59.5703125,-69.3359375,-46.875,-70.80078125
123.7890625,-35.64453125,-82.03125,-45.41015625,-62.98828125
123.79296875,12.20703125,-59.5703125,-49.8046875,-18.5546875
123.796875,4.8828125,-60.546875,-51.26953125,-27.34375
123.80078125,-20.99609375,-52.734375,-51.26953125,-68.359375
123.8046875,-65.4296875,-49.31640625,-52.734375,-58.10546875
123.80859375,-50.29296875,-79.58984375,-48.828125,-22.94921875
123.8125,15.625,-67.87109375,-46.38671875,-14.16015625
123.81640625,-23.4375,-34.66796875,-50.78125,-50.29296875
123.8203125,-78.61328125,-30.76171875,-56.640625,-59.5703125
123.82421875,-22.4609375,-25.390625,-62.01171875,0.9765625
123.828125,22.4609375,-13.18359375,-58.59375,13.18359375
123.83203125,-21.97265625,-24.90234375,-48.33984375,-21.484375
123.8359375,-61.5234375,-38.0859375,-42.96875,-33.69140625
123.83984375,-37.109375,-47.36328125,-49.8046875,-30.2734375
123.84375,-7.32421875,-50.29296875,-49.31640625,-12.20703125
123.84765625,-16.11328125,-52.734375,-44.921875,-11.71875
123.8515625,-74.70703125,-61.03515625,-50.29296875,-70.80078125
123.85546875,-80.56640625,-58.10546875,-50.78125,-68.359375
123.859375,0.48828125,-53.7109375,-52.734375,-14.16015625
123.86328125,43.45703125,-52.24609375,-54.6875,-6.8359375
123.8671875,-30.2734375,-54.19921875,-51.26953125,-33.203125
123.87109375,-90.33203125,-75.68359375,-47.8515625,-41.9921875
123.875,-53.7109375,-9.27734375,-49.8046875,-7.32421875
123.87890625,-26.85546875,31.73828125,-47.36328125,-6.8359375
123.8828125,-49.31640625,-45.41015625,-43.9453125,-33.203125
123.88671875,-64.94140625,-51.26953125,-47.36328125,-46.875
123.890625,-35.15625,-43.9453125,-46.875,-18.06640625
123.89453125,-7.32421875,-42.96875,-37.59765625,-4.8828125
123.8984375,-66.40625,-41.015625,-21.484375,-34.66796875
123.90234375,-102.05078125,-50.78125,-8.30078125,-56.15234375
123.90625,-75.1953125,-42.48046875,-9.765625,-59.5703125
123.91015625,-8.7890625,-46.875,-16.6015625,-37.109375
123.9140625,13.18359375,-10.25390625,-18.5546875,-24.4140625
123.91796875,-37.59765625,49.8046875,-20.99609375,-57.12890625
123.921875,-42.48046875,-24.4140625,-27.34375,-60.05859375
123.92578125,24.90234375,-71.2890625,-27.83203125,-37.59765625
123.9296875,6.34765625,-68.359375,-28.3203125,-13.18359375
123.93359375,-79.58984375,-60.546875,-35.64453125,-28.80859375
123.9375,-93.75,-58.59375,-32.71484375,-44.921875
123.94140625,-57.6171875,-63.4765625,-25.390625,-33.69140625
123.9453125,-3.90625,-63.4765625,-23.92578125,-25.390625
123.94921875,-2.9296875,-63.4765625,-21.484375,-41.50390625
123.953125,-33.69140625,-58.59375,-27.34375,-47.36328125
123.95703125,13.18359375,-37.109375,-32.2265625,-17.578125
123.9609375,26.85546875,-47.8515625,-36.62109375,-18.06640625
123.96484375,-27.34375,-55.6640625,-41.50390625,-53.7109375
123.96875,-72.265625,-44.921875,-40.52734375,-68.359375
123.97265625,-90.33203125,-68.84765625,-42.96875,-46.875
123.9765625,-4.8828125,13.18359375,-39.55078125,-19.53125
123.98046875,24.4140625,21.97265625,-40.0390625,-14.6484375
123.984375,-34.66796875,-69.82421875,-48.33984375,-47.8515625
123.98828125,-61.5234375,-72.75390625,-48.33984375,-49.8046875
123.9921875,-22.94921875,-66.89453125,-51.7578125,-6.8359375
123.99609375,13.671875,-53.7109375,-50.29296875,9.27734375
124.0,-3.41796875,-48.828125,-42.48046875,-10.7421875
124.00390625,-38.0859375,-50.29296875,-43.45703125,-25.390625
124.0078125,-41.50390625,-48.828125,-42.96875,-27.34375
124.01171875,-4.39453125,-65.91796875,-38.57421875,-30.2734375
124.015625,-35.64453125,-45.8984375,-41.015625,-52.24609375
124.01953125,-82.03125,-28.3203125,-46.38671875,-58.10546875
124.0234375,-60.546875,-68.359375,-45.8984375,-19.53125
124.02734375,-22.94921875,-87.40234375,-47.8515625,-5.859375
124.03125,-33.69140625,-77.63671875,-55.6640625,-20.01953125
124.03515625,-52.734375,-62.98828125,-54.19921875,-36.62109375
124.0390625,-24.90234375,-62.98828125,-50.29296875,-30.2734375
124.04296875,10.25390625,-56.640625,-46.38671875,-15.625
124.046875,-3.41796875,-45.8984375,-42.96875,-25.87890625
124.05078125,-25.390625,-52.734375,-51.7578125,-56.15234375
124.0546875,-9.27734375,-56.15234375,-55.17578125,-58.59375
124.05859375,3.90625,-40.0390625,-50.78125,-27.34375
124.0625,27.83203125,-57.12890625,-50.78125,-18.06640625
124.06640625,-16.6015625,-74.21875,-50.78125,-36.1328125
124.0703125,-73.73046875,-60.05859375,-55.17578125,-52.24609375
124.07421875,-55.6640625,-47.8515625,-53.7109375,-47.36328125
124.078125,-5.859375,-48.33984375,-52.24609375,-29.296875
124.08203125,-25.390625,-54.19921875,-51.26953125,-39.55078125
124.0859375,-102.5390625,-59.08203125,-48.33984375,-60.546875
124.08984375,-80.56640625,-60.546875,-44.921875,-26.85546875
124.09375,-26.3671875,-51.7578125,-42.48046875,8.30078125
124.09765625,-14.16015625,-55.17578125,-49.31640625,-19.04296875
124.1015625,-56.15234375,-77.63671875,-52.734375,-62.01171875
124.10546875,-54.19921875,-62.5,-51.7578125,-46.875
124.109375,-0.48828125,-51.7578125,-51.26953125,-17.578125
124.11328125,16.11328125,-67.87109375,-53.7109375,-24.90234375
124.1171875,-6.34765625,20.5078125,-52.24609375,-37.59765625
124.12109375,-8.7890625,23.92578125,-55.17578125,-33.69140625
124.125,13.671875,-52.734375,-56.15234375,-0.9765625
124.12890625,34.1796875,-55.17578125,-55.17578125,0.9765625
124.1328125,0.48828125,-57.6171875,-55.6640625,-32.71484375
124.13671875,-10.7421875,-60.05859375,-50.29296875,-28.3203125
124.140625,26.85546875,-70.3125,-50.78125,6.8359375
124.14453125,40.52734375,-67.87109375,-52.24609375,24.4140625
124.1484375,23.4375,-53.22265625,-51.26953125,16.11328125
124.15234375,-11.23046875,-79.58984375,-48.828125,-4.39453125
124.15625,-29.296875,-75.68359375,-44.921875,-21.97265625
124.16015625,2.44140625,-37.109375,-52.24609375,-18.5546875
124.1640625,37.59765625,-57.12890625,-60.546875,-9.765625
124.16796875,-0.48828125,-57.6171875,-58.10546875,-18.06640625
124.171875,-5.859375,-30.2734375,-52.734375,-24.4140625
124.17578125,26.3671875,-47.36328125,-50.29296875,-12.20703125
124.1796875,7.32421875,-68.359375,-49.31640625,0.9765625
124.18359375,-30.76171875,-66.89453125,-49.8046875,-15.625
124.1875,-31.25,-79.1015625,-55.17578125,-52.734375
124.19140625,-4.39453125,-73.2421875,-54.6875,-35.15625
124.1953125,14.16015625,-41.50390625,-51.26953125,11.71875
124.19921875,-8.30078125,-23.92578125,-50.78125,-4.8828125
124.203125,-41.9921875,-46.38671875,-48.33984375,-39.55078125
124.20703125,-26.3671875,-50.29296875,-49.8046875,-16.6015625
124.2109375,21.97265625,-44.921875,-47.8515625,20.99609375
124.21484375,19.53125,-47.36328125,-42.96875,-6.8359375
124.21875,-23.4375,-54.19921875,-47.36328125,-33.69140625
124.22265625,-26.3671875,-58.59375,-52.734375,-15.13671875
124.2265625,-20.01953125,-54.19921875,-51.26953125,12.6953125
124.23046875,-21.97265625,-55.6640625,-51.26953125,13.671875
124.234375,-47.8515625,-57.6171875,-51.26953125,-27.83203125
124.23828125,-53.7109375,-54.6875,-54.6875,-20.01953125
124.2421875,11.71875,-73.2421875,-57.12890625,-10.7421875
124.24609375,45.41015625,-66.40625,-54.19921875,-18.5546875
124.25,-26.3671875,-37.109375,-47.36328125,-14.16015625
124.25390625,-75.68359375,-21.97265625,-33.69140625,-10.25390625
124.2578125,-31.25,-9.27734375,-28.80859375,5.37109375
124.26171875,9.765625,-39.55078125,-26.85546875,0.0
124.265625,-9.765625,-58.59375,-27.83203125,-18.5546875
124.26953125,-60.05859375,-62.5,-37.109375,-27.34375
124.2734375,-49.31640625,-73.73046875,-39.55078125,-10.7421875
124.27734375,-8.7890625,-58.59375,-31.73828125,-3.90625
124.28125,4.8828125,-35.64453125,-26.3671875,-17.578125
124.28515625,1.953125,-40.52734375,-28.80859375,-22.94921875
124.2890625,-49.31640625,-44.43359375,-40.52734375,-26.85546875
124.29296875,-21.97265625,-33.203125,-45.41015625,6.8359375
124.296875,13.671875,-36.62109375,-43.9453125,20.01953125
124.30078125,-26.3671875,-46.875,-43.45703125,-32.2265625
124.3046875,-69.82421875,-54.6875,-41.015625,-29.296875
124.30859375,-40.0390625,-46.38671875,-35.15625,-22.94921875
124.3125,0.48828125,-41.9921875,-37.59765625,-30.76171875
124.31640625,-26.3671875,-50.78125,-43.45703125,-2.9296875
124.3203125,-26.85546875,-49.31640625,-43.45703125,5.859375
124.32421875,-11.71875,-40.0390625,-47.36328125,-19.53125
124.328125,-6.34765625,-29.296875,-41.015625,-23.92578125
124.33203125,-41.50390625,-38.57421875,-33.69140625,-43.45703125
124.3359375,-74.21875,-12.20703125,-37.59765625,-70.80078125
124.33984375,-72.265625,0.9765625,-38.0859375,-57.6171875
124.34375,-51.26953125,-54.6875,-37.59765625,-40.0390625
124.34765625,-72.265625,-62.98828125,-43.45703125,-64.453125
124.3515625,-120.60546875,-55.17578125,-46.875,-83.49609375
124.35546875,-96.19140625,-45.8984375,-50.78125,-79.1015625
124.359375,-59.5703125,-41.50390625,-57.12890625,-74.70703125
124.36328125,-24.4140625,-33.69140625,-52.24609375,-69.82421875
124.3671875,-64.94140625,-26.85546875,-47.8515625,-104.98046875
124.37109375,-137.20703125,-45.41015625,-47.8515625,-121.58203125
124.375,-82.51953125,-33.69140625,-54.19921875,-80.078125
124.37890625,-28.3203125,-27.34375,-60.05859375,-71.2890625
124.3828125,-85.44921875,-46.875,-58.10546875,-95.21484375
124.38671875,-122.0703125,-65.91796875,-48.828125,-90.8203125
124.390625,-77.1484375,-64.453125,-47.36328125,-90.33203125
124.39453125,-34.1796875,-44.43359375,-54.6875,-79.58984375
124.3984375,-60.05859375,-24.90234375,-55.6640625,-85.9375
124.40234375,-53.22265625,-18.06640625,-57.12890625,-81.0546875
124.40625,-47.8515625,-29.78515625,-57.6171875,-70.80078125
124.41015625,-45.8984375,-46.875,-52.734375,-60.05859375
124.4140625,-34.1796875,-57.6171875,-54.6875,-64.453125
124.41796875,-58.10546875,-63.4765625,-58.10546875,-72.75390625
124.421875,-40.52734375,-42.96875,-50.29296875,-40.0390625
124.42578125,-2.44140625,-31.73828125,-38.57421875,-16.6015625
124.4296875,14.6484375,-34.66796875,-36.62109375,-18.06640625
124.43359375,-38.0859375,-40.52734375,-42.96875,-41.50390625
124.4375,-74.70703125,-85.9375,-42.48046875,-46.875
124.44140625,-12.6953125,-91.796875,-40.52734375,-22.94921875
124.4453125,29.78515625,-67.3828125,-38.0859375,-4.39453125
124.44921875,-48.828125,-56.15234375,-33.203125,-50.78125
124.453125,-75.68359375,-33.69140625,-35.64453125,-105.46875
124.45703125,-15.13671875,-17.578125,-43.45703125,-45.41015625
124.4609375,-1.46484375,-16.6015625,-43.45703125,1.953125
124.46484375,-20.01953125,-20.5078125,-42.96875,-20.01953125
124.46875,-68.84765625,-31.25,-46.38671875,-35.64453125
124.47265625,-74.70703125,-39.55078125,-47.36328125,-34.1796875
124.4765625,2.9296875,-85.9375,-47.8515625,-38.57421875
124.48046875,14.16015625,-81.54296875,-50.29296875,-34.66796875
124.484375,-63.4765625,-28.3203125,-55.6640625,-28.3203125
124.48828125,-71.77734375,-28.3203125,-57.6171875,-34.66796875
124.4921875,14.16015625,-33.203125,-53.22265625,-21.97265625
124.49609375,48.828125,-39.55078125,-49.31640625,-8.7890625
124.5,-32.2265625,-33.69140625,-43.45703125,-57.12890625
124.50390625,-66.40625,-37.59765625,-40.0390625,-63.96484375
124.5078125,-16.11328125,-44.921875,-36.1328125,-22.94921875
124.51171875,27.34375,-43.9453125,-36.62109375,-26.85546875
124.515625,-39.0625,-50.29296875,-44.43359375,-59.5703125
124.51953125,-88.37890625,-44.43359375,-49.31640625,-52.734375
124.5234375,-23.4375,-39.55078125,-45.41015625,-5.37109375
124.52734375,8.7890625,-21.97265625,-42.48046875,-31.73828125
124.53125,-4.39453125,-13.671875,-36.62109375,-39.55078125
124.53515625,-79.1015625,-33.203125,-37.109375,-55.17578125
124.5390625,-81.0546875,-41.50390625,-40.0390625,-75.68359375
124.54296875,12.6953125,-31.73828125,-42.48046875,-26.3671875
124.546875,-1.953125,-30.76171875,-46.38671875,-20.99609375
124.55078125,-75.68359375,-39.0625,-55.6640625,-54.6875
124.5546875,-47.36328125,-51.26953125,-53.7109375,-59.5703125
124.55859375,23.92578125,-50.29296875,-37.59765625,-6.8359375
124.5625,15.13671875,-19.04296875,-39.0625,5.37109375
124.56640625,-20.01953125,-8.7890625,-40.0390625,-45.8984375
124.5703125,-51.26953125,-41.50390625,-33.203125,-55.6640625
124.57421875,-53.7109375,-45.41015625,-38.0859375,-39.0625
124.578125,-12.20703125,-28.3203125,-40.0390625,-28.3203125
124.58203125,-14.6484375,-26.85546875,-38.0859375,-30.2734375
124.5859375,-55.6640625,-27.83203125,-41.9921875,-46.875
124.58984375,-28.80859375,-29.296875,-40.0390625,-21.484375
124.59375,13.18359375,-18.06640625,-38.0859375,20.99609375
124.59765625,-3.90625,-28.3203125,-42.96875,-12.20703125
124.6015625,-26.85546875,-38.57421875,-41.015625,-36.62109375
124.60546875,0.0,-39.55078125,-44.43359375,-12.6953125
124.609375,54.6875,-41.50390625,-49.8046875,19.53125
124.61328125,63.4765625,-33.69140625,-46.38671875,9.765625
124.6171875,57.12890625,-47.8515625,-41.50390625,-14.16015625
124.62109375,38.0859375,-35.15625,-33.69140625,-1.46484375
124.625,20.99609375,-26.3671875,-31.73828125,-2.9296875
124.62890625,25.390625,-44.921875,-40.52734375,-5.859375
124.6328125,-17.578125,-54.6875,-42.96875,-21.97265625
124.63671875,-28.3203125,-42.48046875,-43.45703125,-22.4609375
124.640625,39.0625,-24.90234375,-43.9453125,6.34765625
124.64453125,85.9375,-25.87890625,-38.0859375,4.8828125
124.6484375,9.27734375,-39.55078125,-34.66796875,8.30078125
124.65234375,-63.96484375,-48.828125,-35.64453125,-13.671875
124.65625,-20.5078125,-48.33984375,-35.15625,-24.4140625
124.66015625,86.9140625,-25.87890625,-37.109375,20.5078125
124.6640625,83.0078125,-21.97265625,-44.43359375,5.859375
124.66796875,1.46484375,-41.50390625,-38.0859375,-9.765625
124.671875,-10.7421875,-47.36328125,-35.15625,-14.6484375
124.67578125,41.9921875,-7.8125,-41.9921875,6.8359375
124.6796875,78.61328125,14.6484375,-42.48046875,38.0859375
124.68359375,43.45703125,-25.87890625,-43.9453125,-24.90234375
124.6875,9.765625,-30.76171875,-41.015625,-26.85546875
124.69140625,23.4375,-44.921875,-35.64453125,2.44140625
124.6953125,10.7421875,-63.96484375,-35.15625,-22.4609375
124.69921875,-72.75390625,-49.31640625,-34.1796875,-36.1328125
124.703125,-125.48828125,-40.0390625,-34.66796875,-51.7578125
124.70703125,-96.6796875,-48.33984375,-37.59765625,-34.1796875
124.7109375,-56.15234375,-36.1328125,-33.69140625,-10.25390625
124.71484375,-77.63671875,-55.17578125,-33.203125,-28.80859375
124.71875,-126.46484375,-96.19140625,-35.15625,-47.8515625
124.72265625,-133.7890625,-64.94140625,-32.71484375,-34.66796875
124.7265625,-82.03125,-35.64453125,-35.15625,-22.94921875
124.73046875,-77.1484375,-37.109375,-44.43359375,-28.3203125
124.734375,-126.46484375,-60.05859375,-46.38671875,-37.109375
124.73828125,-142.08984375,-54.19921875,-42.96875,-64.453125
124.7421875,-91.30859375,-41.9921875,-47.36328125,-54.19921875
124.74609375,-75.68359375,-70.3125,-44.43359375,-55.17578125
124.75,-133.7890625,-55.6640625,-43.45703125,-70.3125
124.75390625,-150.87890625,-53.22265625,-52.734375,-60.05859375
124.7578125,-104.98046875,-87.890625,-47.8515625,-49.8046875
124.76171875,-47.36328125,-51.26953125,-41.50390625,-33.203125
124.765625,-77.1484375,-28.3203125,-49.31640625,-29.296875
124.76953125,-109.375,-41.50390625,-51.26953125,-42.96875
124.7734375,-98.6328125,-39.55078125,-47.36328125,-50.29296875
124.77734375,-71.2890625,-32.2265625,-47.36328125,-26.85546875
124.78125,-46.875,-36.1328125,-42.48046875,-25.87890625
124.78515625,-88.37890625,-46.38671875,-44.43359375,-61.5234375
124.7890625,-107.91015625,-35.15625,-45.41015625,-64.453125
124.79296875,-27.34375,-32.2265625,-42.96875,-5.859375
124.796875,1.953125,-22.94921875,-45.41015625,-1.953125
124.80078125,-66.40625,-11.71875,-53.7109375,-61.03515625
124.8046875,-80.56640625,-8.30078125,-48.828125,-41.015625
124.80859375,-51.26953125,-21.484375,-41.50390625,-20.5078125
124.8125,-20.99609375,-49.31640625,-42.48046875,-25.87890625
124.81640625,-77.1484375,-54.19921875,-39.55078125,-38.0859375
124.8203125,-143.5546875,-42.96875,-36.1328125,-83.0078125
124.82421875,-61.5234375,-38.0859375,-37.109375,-46.38671875
124.828125,-27.83203125,-57.12890625,-41.50390625,-14.16015625
124.83203125,-77.1484375,-63.4765625,-46.38671875,-55.6640625
124.8359375,-90.8203125,-43.45703125,-44.43359375,-43.45703125
124.83984375,-65.4296875,-46.38671875,-42.96875,-43.45703125
124.84375,-23.4375,-62.98828125,-43.9453125,-42.96875
124.84765625,-21.484375,-71.77734375,-40.0390625,-6.8359375
124.8515625,-65.91796875,-61.03515625,-41.50390625,-27.83203125
124.85546875,-66.89453125,-64.453125,-41.9921875,-34.66796875
124.859375,14.6484375,-48.33984375,-41.50390625,13.18359375
124.86328125,1.46484375,-26.85546875,-46.38671875,11.71875
124.8671875,-122.55859375,-39.55078125,-43.9453125,-37.109375
124.87109375,-131.8359375,-43.45703125,-37.59765625,-45.8984375
124.875,-34.1796875,-67.87109375,-38.0859375,9.27734375
124.87890625,-3.41796875,-83.49609375,-38.0859375,13.671875
124.8828125,-70.80078125,-55.17578125,-39.55078125,-26.3671875
124.88671875,-101.07421875,-45.8984375,-40.0390625,-47.36328125
124.890625,-39.55078125,-47.8515625,-41.015625,-32.2265625
124.89453125,36.62109375,-42.48046875,-44.921875,29.78515625
124.8984375,-6.34765625,-58.10546875,-43.9453125,24.4140625
124.90234375,-71.2890625,-66.40625,-42.48046875,-21.484375
124.90625,-40.0390625,-48.828125,-44.921875,6.8359375
124.91015625,2.44140625,-44.43359375,-45.41015625,36.1328125
124.9140625,-8.30078125,-37.109375,-43.9453125,31.25
124.91796875,-45.8984375,-34.1796875,-48.33984375,-1.953125
124.921875,-33.69140625,-54.6875,-48.33984375,-21.97265625
124.92578125,28.3203125,-54.19921875,-41.50390625,37.59765625
124.9296875,20.5078125,-56.640625,-41.015625,35.15625
124.93359375,-52.24609375,-62.98828125,-41.50390625,-16.6015625
124.9375,-60.05859375,-57.6171875,-45.41015625,-9.27734375
124.94140625,0.9765625,-55.6640625,-44.43359375,23.92578125
124.9453125,44.921875,-56.15234375,-43.45703125,40.0390625
124.94921875,-10.25390625,-62.98828125,-50.29296875,-0.48828125
124.953125,-82.51953125,-64.94140625,-50.78125,-22.4609375
124.95703125,-38.57421875,-61.5234375,-47.36328125,-4.8828125
124.9609375,-29.78515625,-61.03515625,-46.875,-30.2734375
124.96484375,-120.60546875,-58.59375,-46.38671875,-77.63671875
124.96875,-182.6171875,-50.29296875,-47.8515625,-91.30859375
124.97265625,-215.33203125,-59.08203125,-41.9921875,-94.23828125
124.9765625,-203.61328125,-50.29296875,-41.9921875,-74.70703125
124.98046875,-191.40625,-48.828125,-43.9453125,-55.17578125
124.984375,-235.3515625,-72.265625,-42.48046875,-59.5703125
124.98828125,-223.6328125,-55.6640625,-43.9453125,-54.6875
124.9921875,-125.0,-68.359375,-40.52734375,-40.0390625
124.99609375,-44.43359375,9.27734375,-40.52734375,-24.4140625
125.0,-107.91015625,51.26953125,-45.41015625,-64.453125
125.00390625,-132.32421875,-52.24609375,-45.8984375,-54.6875
125.0078125,-42.96875,-63.4765625,-49.8046875,4.8828125
125.01171875,31.73828125,-58.59375,-60.546875,12.20703125
125.015625,21.97265625,-60.05859375,-65.4296875,0.9765625
125.01953125,-49.8046875,-62.01171875,-64.94140625,-20.5078125
125.0234375,-8.7890625,-68.84765625,-64.453125,-0.9765625
125.02734375,91.796875,-53.22265625,-69.82421875,22.4609375
125.03125,87.40234375,-60.05859375,-70.80078125,0.0
125.03515625,63.4765625,-24.4140625,-71.77734375,4.8828125
125.0390625,101.07421875,-1.46484375,-75.68359375,20.01953125
125.04296875,110.3515625,-57.12890625,-71.77734375,37.59765625
125.046875,100.09765625,-57.12890625,-71.2890625,40.52734375
125.05078125,79.1015625,-60.546875,-74.21875,-27.34375
125.0546875,65.91796875,-54.19921875,-72.75390625,-27.34375
125.05859375,118.65234375,-36.1328125,-67.87109375,30.76171875
125.0625,121.58203125,-55.6640625,-65.4296875,18.5546875
125.06640625,55.17578125,-66.89453125,-62.98828125,-41.50390625
125.0703125,57.6171875,-55.6640625,-55.6640625,-36.1328125
125.07421875,116.69921875,-36.1328125,-57.12890625,25.87890625
125.078125,137.6953125,-30.76171875,-59.5703125,27.34375
125.08203125,80.078125,-67.3828125,-57.12890625,16.11328125
125.0859375,6.34765625,-81.54296875,-59.08203125,-2.44140625
125.08984375,34.1796875,-63.4765625,-65.91796875,29.296875
125.09375,107.421875,-61.5234375,-60.546875,25.390625
125.09765625,71.2890625,-19.04296875,-48.828125,-31.73828125
125.1015625,-10.7421875,-46.875,-45.8984375,-33.203125
125.10546875,5.37109375,-83.984375,-44.43359375,-11.23046875
125.109375,47.36328125,-58.10546875,-41.015625,7.32421875
125.11328125,37.59765625,-50.29296875,-38.0859375,15.625
125.1171875,-17.578125,-55.17578125,-39.55078125,-22.4609375
125.12109375,-40.0390625,-59.5703125,-40.52734375,-26.3671875
125.125,22.4609375,-53.22265625,-41.50390625,15.625
125.12890625,62.01171875,-57.12890625,-39.0625,-7.8125
125.1328125,5.859375,-89.84375,-42.48046875,-41.9921875
125.13671875,-36.1328125,50.78125,-48.33984375,-17.578125
125.140625,-5.859375,85.9375,-47.36328125,-10.7421875
125.14453125,34.1796875,-58.10546875,-47.36328125,-48.33984375
125.1484375,-17.578125,-73.73046875,-51.7578125,-56.640625
125.15234375,-59.08203125,-75.68359375,-55.6640625,-42.96875
125.15625,37.109375,-67.87109375,-46.875,-24.90234375
125.16015625,93.26171875,-83.49609375,-41.9921875,16.6015625
125.1640625,47.8515625,-99.12109375,-42.96875,-2.9296875
125.16796875,-26.3671875,-97.16796875,-46.875,-69.3359375
125.171875,-41.9921875,-75.68359375,-49.31640625,-54.19921875
125.17578125,19.04296875,-32.2265625,-41.9921875,3.90625
125.1796875,24.90234375,-30.2734375,-41.9921875,-2.44140625
125.18359375,0.9765625,-44.921875,-45.41015625,-46.38671875
125.1875,-15.625,-44.43359375,-43.9453125,-46.875
125.19140625,0.9765625,-79.1015625,-41.9921875,-14.16015625
125.1953125,60.546875,-9.765625,-50.29296875,1.46484375
125.19921875,66.40625,36.1328125,-49.8046875,-8.30078125
125.203125,-42.96875,-61.03515625,-36.1328125,-29.78515625
125.20703125,-49.31640625,-75.1953125,-27.83203125,-47.36328125
125.2109375,45.41015625,-61.5234375,-25.87890625,5.37109375
125.21484375,33.69140625,-40.52734375,-26.3671875,4.39453125
125.21875,-19.53125,-41.9921875,-31.25,-49.8046875
125.22265625,-14.16015625,-62.01171875,-32.71484375,-47.36328125
125.2265625,37.59765625,-78.125,-30.76171875,-17.578125
125.23046875,10.25390625,-99.12109375,-35.15625,-8.7890625
125.234375,-46.875,-32.71484375,-41.015625,-58.10546875
125.23828125,-13.671875,73.73046875,-41.015625,-50.78125
125.2421875,28.3203125,3.41796875,-31.73828125,-9.27734375
125.24609375,15.13671875,-38.0859375,-29.78515625,-29.78515625
125.25,-15.625,-25.390625,-29.78515625,-60.546875
125.25390625,-31.73828125,-47.8515625,-29.296875,-46.38671875
125.2578125,0.9765625,-48.33984375,-27.34375,-20.5078125
125.26171875,38.57421875,-62.01171875,-24.90234375,-29.296875
125.265625,14.6484375,-59.08203125,-23.4375,-49.31640625
125.26953125,-19.53125,-50.29296875,-23.4375,-45.41015625
125.2734375,-3.41796875,-57.6171875,-31.25,-34.66796875
125.27734375,34.66796875,18.5546875,-35.15625,-31.73828125
125.28125,0.48828125,6.8359375,-39.0625,-52.734375
125.28515625,-55.6640625,-57.6171875,-41.015625,-60.546875
125.2890625,-50.29296875,-44.921875,-38.57421875,-48.828125
125.29296875,-0.9765625,-41.50390625,-45.8984375,-31.73828125
125.296875,-9.27734375,-37.59765625,-52.734375,-30.2734375
125.30078125,-51.7578125,-41.50390625,-45.41015625,-99.609375
125.3046875,-41.50390625,-51.26953125,-38.57421875,-98.14453125
125.30859375,-27.83203125,-77.1484375,-38.57421875,-12.6953125
125.3125,-29.78515625,-102.5390625,-39.55078125,-10.7421875
125.31640625,-51.26953125,-69.3359375,-38.0859375,-53.7109375
125.3203125,-82.03125,-40.52734375,-36.1328125,-69.82421875
125.32421875,-72.265625,-48.828125,-39.55078125,-53.22265625
125.328125,-46.38671875,-50.29296875,-38.57421875,-51.7578125
125.33203125,-58.59375,-50.78125,-36.1328125,-86.42578125
125.3359375,-93.75,-39.0625,-38.57421875,-101.07421875
125.33984375,-62.98828125,-39.0625,-31.25,-78.61328125
125.34375,-3.41796875,-44.43359375,-30.2734375,-52.734375
125.34765625,-20.5078125,-34.1796875,-38.0859375,-65.91796875
125.3515625,-93.26171875,-37.59765625,-37.109375,-106.4453125
125.35546875,-116.2109375,-43.9453125,-32.2265625,-112.79296875
125.359375,-33.69140625,-48.33984375,-27.83203125,-87.890625
125.36328125,-28.3203125,-48.33984375,-27.34375,-70.80078125
125.3671875,-100.5859375,-45.8984375,-31.25,-111.81640625
125.37109375,-77.63671875,-53.22265625,-39.0625,-114.74609375
125.375,14.6484375,-5.37109375,-41.9921875,-52.734375
125.37890625,30.76171875,31.73828125,-37.59765625,-66.89453125
125.3828125,-33.203125,-34.66796875,-37.109375,-91.30859375
125.38671875,-50.29296875,-59.08203125,-33.203125,-85.9375
125.390625,4.8828125,-67.87109375,-30.2734375,-71.77734375
125.39453125,18.5546875,-81.54296875,-35.15625,-65.4296875
125.3984375,-35.15625,-62.01171875,-37.109375,-69.82421875
125.40234375,-54.6875,-44.921875,-36.62109375,-63.96484375
125.40625,-9.765625,-47.8515625,-35.64453125,-52.734375
125.41015625,41.015625,-58.10546875,-29.78515625,-29.78515625
125.4140625,-23.4375,-33.69140625,-32.71484375,-52.24609375
125.41796875,-86.42578125,21.97265625,-36.1328125,-71.77734375
125.421875,-60.05859375,-16.11328125,-31.73828125,-61.5234375
125.42578125,-28.80859375,-53.22265625,-30.76171875,-48.828125
125.4296875,-20.5078125,-44.43359375,-31.73828125,-51.26953125
125.43359375,-32.2265625,-43.45703125,-34.66796875,-78.61328125
125.4375,-53.7109375,-36.62109375,-34.1796875,-58.10546875
125.44140625,-24.4140625,-47.8515625,-32.2265625,-18.5546875
125.4453125,18.5546875,-53.7109375,-40.52734375,-26.3671875
125.44921875,-22.4609375,-50.29296875,-45.41015625,-53.22265625
125.453125,-76.171875,-52.24609375,-41.015625,-74.21875
125.45703125,-57.12890625,-45.8984375,-39.55078125,-41.015625
125.4609375,-14.16015625,-65.91796875,-37.59765625,-11.71875
125.46484375,-41.9921875,-64.453125,-35.15625,-39.55078125
125.46875,-79.58984375,-43.9453125,-39.55078125,-66.89453125
125.47265625,-59.5703125,-50.78125,-43.9453125,-41.50390625
125.4765625,-18.5546875,48.828125,-42.96875,-21.484375
125.48046875,0.0,60.546875,-44.921875,-33.69140625
125.484375,-76.171875,-38.0859375,-44.43359375,-52.734375
125.48828125,-114.74609375,-52.734375,-38.57421875,-52.734375
125.4921875,-41.9921875,-64.453125,-33.203125,-36.1328125
125.49609375,-16.6015625,-56.15234375,-31.25,-81.0546875
125.5,-56.15234375,-50.78125,-33.203125,-87.890625
125.50390625,-31.25,-60.546875,-34.1796875,-29.296875
125.5078125,-0.48828125,-57.12890625,-36.1328125,-18.5546875
125.51171875,-32.2265625,-82.51953125,-42.96875,-12.6953125
125.515625,-65.4296875,34.1796875,-44.43359375,-28.3203125
125.51953125,-62.5,111.81640625,-43.45703125,-50.29296875
125.5234375,-12.20703125,-34.1796875,-40.0390625,-25.390625
125.52734375,32.71484375,-61.03515625,-32.2265625,-10.7421875
125.53125,22.94921875,-58.59375,-37.109375,-33.69140625
125.53515625,-41.50390625,-61.5234375,-41.50390625,-52.24609375
125.5390625,-83.0078125,-68.84765625,-38.0859375,-51.7578125
125.54296875,-11.23046875,-62.98828125,-37.59765625,-16.11328125
125.546875,14.16015625,-53.22265625,-37.59765625,-32.71484375
125.55078125,-50.29296875,-84.9609375,-41.015625,-84.47265625
125.5546875,-49.8046875,-26.3671875,-49.8046875,-53.7109375
125.55859375,28.80859375,45.8984375,-56.15234375,2.9296875
125.5625,44.43359375,-21.97265625,-49.31640625,-3.41796875
125.56640625,-11.23046875,-51.7578125,-38.57421875,-55.6640625
125.5703125,-44.43359375,-61.5234375,-40.52734375,-40.52734375
125.57421875,-12.20703125,-53.22265625,-42.48046875,6.34765625
125.578125,42.48046875,-35.64453125,-34.66796875,19.53125
125.58203125,-17.578125,-56.640625,-36.62109375,-24.4140625
125.5859375,-93.26171875,-74.21875,-40.52734375,-55.6640625
125.58984375,-51.26953125,-77.63671875,-39.0625,-35.15625
125.59375,15.13671875,-57.6171875,-35.64453125,-2.9296875
125.59765625,15.625,-19.04296875,-40.0390625,-17.08984375
125.6015625,-57.12890625,-46.38671875,-47.8515625,-57.6171875
125.60546875,-69.3359375,-62.01171875,-45.41015625,-28.3203125
125.609375,6.34765625,-47.36328125,-37.109375,3.41796875
125.61328125,4.8828125,-43.45703125,-38.57421875,-28.3203125
125.6171875,-46.38671875,-6.34765625,-41.9921875,-51.7578125
125.62109375,-81.54296875,-23.92578125,-38.57421875,-41.50390625
125.625,-52.734375,-73.2421875,-37.59765625,-49.8046875
125.62890625,6.34765625,-75.68359375,-38.0859375,-33.69140625
125.6328125,-34.66796875,-72.75390625,-36.1328125,-28.3203125
125.63671875,-85.9375,-49.31640625,-41.9921875,-47.36328125
125.640625,-41.9921875,-40.0390625,-48.33984375,-20.5078125
125.64453125,14.6484375,-57.12890625,-49.31640625,11.71875
125.6484375,-13.671875,-51.7578125,-52.734375,-22.4609375
125.65234375,-99.12109375,-72.75390625,-44.921875,-64.94140625
125.65625,-97.16796875,25.87890625,-43.45703125,-47.36328125
125.66015625,-16.11328125,57.6171875,-47.36328125,-26.3671875
125.6640625,-16.6015625,-72.75390625,-42.96875,-29.296875
125.66796875,-104.98046875,-68.359375,-35.15625,-38.57421875
125.671875,-120.1171875,-56.15234375,-37.59765625,-19.04296875
125.67578125,-49.31640625,-41.50390625,-42.48046875,-7.32421875
125.6796875,-42.96875,-41.50390625,-38.57421875,-30.76171875
125.68359375,-103.02734375,-51.26953125,-39.55078125,-58.59375
125.6875,-140.13671875,-34.66796875,-39.55078125,-61.5234375
125.69140625,-95.21484375,-69.82421875,-39.55078125,-35.15625
125.6953125,-26.3671875,20.01953125,-47.36328125,-5.37109375
125.69921875,-36.1328125,114.2578125,-42.48046875,-4.8828125
125.703125,-98.6328125,-25.390625,-36.62109375,-21.97265625
125.70703125,-106.93359375,-69.3359375,-35.64453125,-0.48828125
125.7109375,-21.484375,-55.17578125,-32.2265625,9.765625
125.71484375,-9.765625,-46.38671875,-25.390625,-18.06640625
125.71875,-66.40625,-46.875,-25.390625,-21.484375
125.72265625,-72.265625,-74.21875,-28.80859375,14.6484375
125.7265625,-31.25,-79.58984375,-28.80859375,-6.34765625
125.73046875,-31.73828125,-63.4765625,-40.52734375,-35.15625
125.734375,-62.98828125,-38.0859375,-43.45703125,-36.62109375
125.73828125,-26.85546875,-27.34375,-41.50390625,-40.52734375
125.7421875,11.23046875,-64.94140625,-40.52734375,8.30078125
125.74609375,-22.94921875,-72.75390625,-35.15625,61.03515625
125.75,-47.36328125,-48.33984375,-40.52734375,52.24609375
125.75390625,-83.49609375,-31.73828125,-45.41015625,-19.53125
125.7578125,-86.9140625,21.484375,-36.62109375,-56.15234375
125.76171875,-62.01171875,-8.7890625,-30.76171875,-60.05859375
125.765625,-90.8203125,-47.36328125,-36.1328125,-99.609375
125.76953125,-128.41796875,-36.1328125,-41.015625,-99.12109375
125.7734375,-141.6015625,-50.78125,-37.59765625,-75.1953125
125.77734375,-110.83984375,-37.59765625,-35.15625,-63.96484375
125.78125,-134.765625,-34.66796875,-32.71484375,-119.62890625
125.78515625,-214.35546875,-45.41015625,-30.2734375,-175.29296875
125.7890625,-205.56640625,-41.50390625,-30.76171875,-171.875
125.79296875,-172.36328125,-29.78515625,-33.203125,-150.390625
125.796875,-203.61328125,1.953125,-38.57421875,-158.69140625
125.80078125,-294.921875,-15.13671875,-42.48046875,-213.8671875
125.8046875,-285.64453125,-52.734375,-42.48046875,-214.35546875
125.80859375,-219.7265625,-45.8984375,-42.96875,-200.1953125
125.8125,-230.46875,-31.73828125,-41.50390625,-221.19140625
125.81640625,-303.22265625,42.48046875,-42.96875,-271.97265625
125.8203125,-362.3046875,23.4375,-51.26953125,-314.453125
125.82421875,-308.59375,-52.734375,-46.875,-280.76171875
125.828125,-256.8359375,-45.8984375,-48.828125,-250.9765625
125.83203125,-264.6484375,-73.73046875,-58.10546875,-250.0
125.8359375,-291.015625,-32.2265625,-62.01171875,-267.08984375
125.83984375,-286.1328125,25.390625,-53.22265625,-266.6015625
125.84375,-221.19140625,-18.06640625,-43.9453125,-226.07421875
125.84765625,-234.375,-31.73828125,-48.828125,-263.18359375
125.8515625,-309.5703125,-15.13671875,-53.22265625,-309.5703125
125.85546875,-262.6953125,-23.4375,-49.8046875,-247.0703125
125.859375,-180.6640625,-48.33984375,-49.8046875,-175.29296875
125.86328125,-156.73828125,-44.43359375,-51.26953125,-138.671875
125.8671875,-165.52734375,-44.43359375,-47.36328125,-154.78515625
125.87109375,-161.62109375,-62.01171875,-49.8046875,-160.64453125
125.875,-59.08203125,-40.0390625,-52.24609375,-112.3046875
125.87890625,10.7421875,-43.9453125,-50.78125,-55.17578125
125.8828125,-71.77734375,-75.1953125,-46.875,-52.734375
125.88671875,-99.609375,-54.19921875,-43.9453125,-62.98828125
125.890625,-30.2734375,-48.33984375,-42.48046875,-34.1796875
125.89453125,-4.39453125,-55.17578125,-44.43359375,-3.90625
125.8984375,-60.05859375,-55.6640625,-49.31640625,-30.76171875
125.90234375,-78.61328125,-66.89453125,-52.24609375,-56.15234375
125.90625,-12.6953125,-71.77734375,-51.7578125,-31.25
125.91015625,56.15234375,-87.40234375,-54.6875,-7.8125
125.9140625,19.53125,-86.42578125,-57.12890625,-13.671875
125.91796875,-43.9453125,-49.8046875,-47.8515625,-28.80859375
125.921875,-41.9921875,-68.359375,-41.50390625,-44.921875
125.92578125,42.48046875,-75.68359375,-45.8984375,-23.4375
125.9296875,81.54296875,-62.98828125,-49.8046875,22.94921875
125.93359375,35.15625,-71.77734375,-49.31640625,3.90625
125.9375,-12.20703125,-21.97265625,-47.8515625,-8.30078125
125.94140625,-11.23046875,-38.0859375,-48.828125,6.34765625
125.9453125,55.17578125,-93.75,-52.24609375,25.87890625
125.94921875,31.25,-66.89453125,-48.33984375,19.04296875
125.953125,-38.0859375,-60.546875,-41.015625,-26.3671875
125.95703125,-3.90625,-65.91796875,-40.52734375,-23.92578125
125.9609375,52.24609375,-58.59375,-36.1328125,4.8828125
125.96484375,45.41015625,-61.03515625,-36.1328125,5.859375
125.96875,8.30078125,-83.0078125,-37.109375,11.71875
125.97265625,-7.8125,-79.1015625,-38.57421875,19.04296875
125.9765625,45.8984375,-52.24609375,-48.33984375,20.5078125
125.98046875,50.78125,-34.66796875,-48.828125,15.13671875
125.984375,-21.97265625,-48.33984375,-49.31640625,-26.3671875
125.98828125,-18.06640625,-57.6171875,-48.828125,-22.94921875
125.9921875,38.0859375,-58.59375,-46.38671875,0.0
125.99609375,41.015625,-81.0546875,-45.41015625,11.71875
126.0,-13.671875,-78.125,-43.45703125,-16.6015625
126.00390625,-66.40625,-71.2890625,-41.50390625,-59.08203125
126.0078125,-0.48828125,-68.359375,-39.0625,-0.48828125
126.01171875,42.48046875,-56.15234375,-43.9453125,1.46484375
126.015625,-21.484375,-42.96875,-39.0625,-51.7578125
126.01953125,-62.01171875,-26.3671875,-30.2734375,-76.171875
126.0234375,-46.38671875,-23.92578125,-37.59765625,-37.59765625
126.02734375,13.18359375,-20.01953125,-40.0390625,11.71875
126.03125,-33.69140625,-67.3828125,-43.45703125,-50.78125
126.03515625,-103.02734375,-24.4140625,-45.41015625,-101.5625
126.0390625,-56.640625,38.0859375,-41.50390625,-49.8046875
126.04296875,50.78125,-33.69140625,-45.41015625,34.1796875
126.046875,57.12890625,-33.203125,-48.33984375,27.83203125
126.05078125,-55.17578125,-37.109375,-43.45703125,-9.765625
126.0546875,-90.8203125,-59.08203125,-44.43359375,-24.4140625
126.05859375,-42.96875,-63.4765625,-53.7109375,-7.32421875
126.0625,-7.8125,-70.80078125,-59.5703125,-5.859375
126.06640625,-42.96875,-68.359375,-55.6640625,-41.015625
126.0703125,-72.265625,-78.61328125,-53.7109375,-42.96875
126.07421875,-2.9296875,-53.7109375,-50.78125,-2.44140625
126.078125,43.45703125,17.578125,-45.41015625,-5.37109375
126.08203125,-13.18359375,-0.9765625,-43.45703125,-51.7578125
126.0859375,-71.77734375,-32.71484375,-39.55078125,-72.265625
126.08984375,-30.2734375,-24.90234375,-40.0390625,-42.96875
126.09375,16.6015625,-25.390625,-52.24609375,-9.27734375
126.09765625,-28.3203125,-47.8515625,-50.29296875,-0.48828125
126.1015625,-105.95703125,-66.89453125,-40.0390625,-40.52734375
126.10546875,-74.70703125,-50.29296875,-42.48046875,-43.9453125
126.109375,27.83203125,-29.296875,-40.52734375,-7.32421875
126.11328125,61.03515625,-14.6484375,-44.43359375,-28.3203125
126.1171875,-39.0625,34.66796875,-44.43359375,-59.5703125
126.12109375,-123.046875,12.6953125,-45.8984375,-62.5
126.125,-52.24609375,-58.59375,-46.38671875,-34.1796875
126.12890625,10.7421875,-53.22265625,-42.48046875,17.08984375
126.1328125,-39.0625,-35.64453125,-48.33984375,-29.296875
126.13671875,-89.35546875,-31.25,-46.875,-66.40625
126.140625,-31.25,-26.85546875,-41.50390625,-10.7421875
126.14453125,4.8828125,-34.1796875,-36.62109375,-0.48828125
126.1484375,-47.8515625,-44.921875,-38.57421875,-32.2265625
126.15234375,-98.6328125,-48.828125,-42.48046875,-61.5234375
126.15625,-72.75390625,-46.38671875,-42.96875,-38.57421875
126.16015625,-0.48828125,-44.921875,-42.48046875,13.18359375
126.1640625,-10.7421875,-35.64453125,-43.45703125,-15.13671875
126.16796875,-74.70703125,-20.5078125,-41.50390625,-65.91796875
126.171875,-64.453125,-26.85546875,-35.64453125,-56.640625
126.17578125,-19.53125,-30.76171875,-31.73828125,-27.34375
126.1796875,-2.44140625,-36.62109375,-34.66796875,-16.11328125
126.18359375,-40.52734375,-50.78125,-40.52734375,-49.31640625
126.1875,-75.68359375,-48.33984375,-39.0625,-69.3359375
126.19140625,-6.34765625,-49.8046875,-37.109375,-18.5546875
126.1953125,42.48046875,-64.94140625,-38.0859375,12.6953125
126.19921875,-22.94921875,-46.875,-33.69140625,-31.73828125
126.203125,-83.0078125,-22.4609375,-32.2265625,-60.546875
126.20703125,-15.625,-16.11328125,-32.71484375,-26.85546875
126.2109375,35.64453125,-13.18359375,-33.203125,-10.25390625
126.21484375,-45.8984375,-24.90234375,-29.296875,-28.80859375
126.21875,-109.375,-20.01953125,-30.76171875,-41.50390625
126.22265625,-74.70703125,-30.2734375,-31.73828125,-62.5
126.2265625,1.953125,-41.015625,-34.1796875,-48.33984375
126.23046875,-10.7421875,-48.828125,-35.64453125,-39.0625
126.234375,-63.96484375,-29.78515625,-35.15625,-59.5703125
126.23828125,-39.55078125,4.8828125,-42.48046875,-30.2734375
126.2421875,15.13671875,-27.34375,-41.50390625,7.32421875
126.24609375,14.16015625,-64.94140625,-32.71484375,-16.11328125
126.25,-45.8984375,-74.21875,-30.76171875,-58.59375
126.25390625,-85.44921875,-68.359375,-33.203125,-37.109375
126.2578125,-46.38671875,-27.83203125,-35.64453125,-9.765625
126.26171875,-17.08984375,-15.625,-43.9453125,-16.11328125
126.265625,-36.1328125,-17.08984375,-42.48046875,-42.96875
126.26953125,-68.359375,-12.6953125,-37.59765625,-47.8515625
126.2734375,-41.9921875,-49.8046875,-41.015625,-21.484375
126.27734375,23.4375,-45.41015625,-36.1328125,-3.90625
126.28125,-31.25,-35.15625,-29.78515625,-37.109375
126.28515625,-78.61328125,-73.2421875,-27.34375,-68.84765625
126.2890625,-46.38671875,-77.63671875,-28.80859375,-51.26953125
126.29296875,-39.0625,-67.3828125,-32.71484375,-17.578125
126.296875,-60.05859375,-65.91796875,-37.109375,-22.4609375
126.30078125,-83.49609375,-51.7578125,-37.109375,-68.359375
126.3046875,-51.26953125,-36.62109375,-35.15625,-38.0859375
126.30859375,1.46484375,-44.43359375,-34.1796875,-17.578125
126.3125,6.8359375,-64.94140625,-36.1328125,-37.59765625
126.31640625,-61.5234375,-74.70703125,-41.015625,-40.0390625
126.3203125,-99.609375,-81.54296875,-38.57421875,-53.7109375
126.32421875,-32.71484375,-63.96484375,-37.109375,-29.296875
126.328125,-0.48828125,-43.45703125,-35.64453125,-24.4140625
126.33203125,-58.10546875,-52.24609375,-30.76171875,-57.6171875
126.3359375,-83.984375,-42.48046875,-32.71484375,-54.19921875
126.33984375,-34.1796875,-2.9296875,-42.96875,-14.6484375
126.34375,7.32421875,4.39453125,-49.8046875,14.6484375
126.34765625,10.7421875,-22.94921875,-44.43359375,-15.13671875
126.3515625,-66.89453125,-58.10546875,-38.0859375,-37.59765625
126.35546875,-101.5625,-58.59375,-38.57421875,-40.0390625
126.359375,-52.24609375,-43.45703125,-29.78515625,-21.97265625
126.36328125,-58.10546875,-53.22265625,-27.83203125,-10.25390625
126.3671875,-86.42578125,-51.7578125,-27.34375,-37.109375
126.37109375,-79.1015625,-41.50390625,-23.92578125,-38.0859375
126.375,-36.1328125,-46.875,-30.76171875,-22.4609375
126.37890625,-3.90625,-60.05859375,-36.62109375,-20.01953125
126.3828125,-48.828125,-69.3359375,-35.64453125,-48.33984375
126.38671875,-85.9375,-69.3359375,-33.203125,-46.38671875
126.390625,-48.33984375,-43.9453125,-37.109375,-12.20703125
126.39453125,0.48828125,-26.3671875,-35.15625,-20.01953125
126.3984375,-24.90234375,-44.43359375,-35.15625,-51.26953125
126.40234375,-100.09765625,-57.6171875,-36.1328125,-64.94140625
126.40625,-57.6171875,-48.33984375,-39.55078125,-17.578125
126.41015625,4.39453125,-37.59765625,-42.48046875,-6.8359375
126.4140625,-36.62109375,-54.19921875,-36.62109375,-35.64453125
126.41796875,-95.703125,-71.77734375,-34.66796875,-72.75390625
126.421875,-56.640625,-49.31640625,-39.55078125,-45.41015625
126.42578125,6.8359375,-50.78125,-37.59765625,-17.578125
126.4296875,11.23046875,-68.84765625,-36.62109375,-41.50390625
126.43359375,-40.52734375,-56.640625,-40.52734375,-25.87890625
126.4375,-64.94140625,-36.62109375,-41.015625,-28.3203125
126.44140625,-3.90625,-22.4609375,-41.015625,-1.46484375
126.4453125,23.92578125,-21.97265625,-38.0859375,-3.41796875
126.44921875,-27.83203125,-37.59765625,-30.76171875,-57.12890625
126.453125,-83.0078125,-45.41015625,-26.3671875,-36.1328125
126.45703125,-35.15625,-20.5078125,-31.73828125,-9.27734375
126.4609375,27.34375,-19.53125,-39.0625,-7.32421875
126.46484375,-19.53125,-54.6875,-29.78515625,-29.296875
126.46875,-85.9375,-62.98828125,-22.4609375,-68.84765625
126.47265625,-35.15625,-52.24609375,-26.3671875,-29.296875
126.4765625,35.15625,-34.1796875,-27.34375,-1.953125
126.48046875,16.11328125,-48.828125,-27.83203125,-24.4140625
126.484375,-29.296875,-56.640625,-26.3671875,-37.109375
126.48828125,-24.90234375,-44.43359375,-21.484375,-27.83203125
126.4921875,47.8515625,-36.62109375,-22.4609375,16.11328125
126.49609375,77.1484375,-33.69140625,-21.484375,21.97265625
126.5,5.37109375,-49.8046875,-18.5546875,-29.296875
126.50390625,-36.62109375,-55.17578125,-17.578125,-34.66796875
126.5078125,12.6953125,-52.734375,-15.625,12.6953125
126.51171875,36.62109375,-61.03515625,-17.08984375,-2.9296875
126.515625,26.3671875,-69.82421875,-20.01953125,-19.04296875
126.51953125,-25.390625,-63.96484375,-19.04296875,-13.18359375
126.5234375,-20.99609375,-64.453125,-17.08984375,6.8359375
126.52734375,47.36328125,-57.12890625,-17.578125,8.30078125
126.53125,6.34765625,-41.015625,-14.16015625,-43.9453125
126.53515625,-45.8984375,-13.671875,-19.04296875,-70.80078125
126.5390625,-5.37109375,25.390625,-26.85546875,-20.01953125
126.54296875,36.62109375,-0.48828125,-21.484375,2.9296875
126.546875,11.71875,-40.0390625,-20.99609375,-18.5546875
126.55078125,-69.82421875,-59.08203125,-21.484375,-40.52734375
126.5546875,-84.9609375,-58.59375,-22.4609375,-52.24609375
126.55859375,-10.25390625,-49.8046875,-22.4609375,-29.78515625
126.5625,17.578125,-62.01171875,-16.6015625,-21.97265625
126.56640625,-35.15625,-77.63671875,-18.5546875,-38.0859375
126.5703125,-92.7734375,-76.171875,-18.5546875,-30.2734375
126.57421875,-48.828125,-67.87109375,-17.08984375,-9.27734375
126.578125,41.9921875,-64.94140625,-20.01953125,-15.13671875
126.58203125,11.23046875,-48.33984375,-23.92578125,-43.9453125
126.5859375,-58.10546875,-53.7109375,-24.90234375,-34.66796875
126.58984375,-33.203125,-61.03515625,-20.99609375,-0.48828125
126.59375,23.92578125,-52.734375,-24.4140625,-7.32421875
126.59765625,6.34765625,-62.5,-30.2734375,-41.50390625
126.6015625,-48.33984375,-57.6171875,-29.78515625,-54.6875
126.60546875,-43.45703125,-69.82421875,-31.73828125,-21.97265625
126.609375,-4.8828125,-93.26171875,-39.55078125,3.41796875
126.61328125,-2.44140625,-63.4765625,-34.1796875,-11.23046875
126.6171875,-41.9921875,-47.8515625,-22.94921875,-18.06640625
126.62109375,-50.29296875,-46.38671875,-25.390625,-23.92578125
126.625,-7.8125,-19.04296875,-33.203125,-18.5546875
126.62890625,23.4375,-15.13671875,-26.3671875,-6.34765625
126.6328125,-27.34375,-35.15625,-16.6015625,-17.08984375
126.63671875,-83.984375,-34.1796875,-20.5078125,-37.109375
126.640625,-50.78125,-34.66796875,-24.90234375,-10.25390625
126.64453125,15.625,-44.921875,-27.34375,10.25390625
126.6484375,-22.94921875,-39.55078125,-26.3671875,-17.578125
126.65234375,-84.47265625,-63.96484375,-21.97265625,-34.66796875
126.65625,-76.66015625,-62.98828125,-26.3671875,-19.04296875
126.66015625,-18.06640625,-41.9921875,-35.15625,-14.6484375
126.6640625,0.48828125,-53.22265625,-33.69140625,-35.15625
126.66796875,-75.1953125,-62.5,-30.76171875,-62.98828125
126.671875,-90.33203125,-46.875,-31.25,-46.38671875
126.67578125,-20.01953125,-50.29296875,-30.76171875,-22.94921875
126.6796875,16.11328125,-67.3828125,-41.015625,-26.3671875
126.68359375,-34.1796875,-55.6640625,-48.33984375,-17.578125
126.6875,-70.3125,-55.6640625,-45.8984375,-9.765625
126.69140625,-18.5546875,-55.6640625,-43.9453125,14.6484375
126.6953125,13.18359375,-35.64453125,-37.109375,16.6015625
126.69921875,-52.24609375,-36.62109375,-31.73828125,-31.25
126.703125,-87.890625,-60.05859375,-33.203125,-41.9921875
126.70703125,-38.0859375,-58.59375,-30.2734375,-11.23046875
126.7109375,-16.6015625,-39.55078125,-23.92578125,-25.390625
126.71484375,-55.17578125,-38.57421875,-28.80859375,-68.359375
126.71875,-92.7734375,-23.4375,-33.69140625,-71.77734375
126.72265625,-54.19921875,-17.578125,-32.71484375,-50.29296875
126.7265625,24.4140625,-34.66796875,-38.0859375,-18.5546875
126.73046875,-5.37109375,-41.50390625,-40.0390625,-48.828125
126.734375,-87.40234375,-47.36328125,-40.52734375,-59.5703125
126.73828125,-83.0078125,-59.08203125,-42.96875,-35.15625
126.7421875,-28.3203125,-54.6875,-41.9921875,-9.27734375
126.74609375,-9.765625,-41.50390625,-40.52734375,0.48828125
126.75,-70.80078125,-46.875,-37.109375,-51.7578125
126.75390625,-82.51953125,-36.62109375,-31.73828125,-50.78125
126.7578125,-28.3203125,-31.25,-30.2734375,-34.1796875
126.76171875,19.53125,-45.8984375,-37.109375,-31.73828125
126.765625,-22.94921875,-41.50390625,-40.0390625,-26.3671875
126.76953125,-76.66015625,-38.0859375,-35.64453125,-40.52734375
126.7734375,-32.2265625,-45.41015625,-36.62109375,-26.85546875
126.77734375,-6.8359375,-43.45703125,-35.64453125,-4.8828125
126.78125,-62.98828125,-43.9453125,-36.1328125,-18.06640625
126.78515625,-113.28125,-47.8515625,-37.59765625,-44.921875
126.7890625,-77.1484375,-48.828125,-30.2734375,-38.57421875
126.79296875,-2.9296875,-53.7109375,-31.25,-1.953125
126.796875,2.44140625,-45.41015625,-33.203125,-15.13671875
126.80078125,-56.640625,-61.5234375,-31.73828125,-43.9453125
126.8046875,-63.4765625,-61.5234375,-38.57421875,-43.9453125
126.80859375,-8.7890625,-39.0625,-47.8515625,-24.90234375
126.8125,13.671875,-40.0390625,-54.6875,-25.87890625
126.81640625,-36.1328125,-20.5078125,-53.7109375,-62.5
126.8203125,-84.47265625,-19.53125,-51.26953125,-41.9921875
126.82421875,-36.1328125,-41.9921875,-50.78125,-6.8359375
126.828125,3.90625,-45.41015625,-45.41015625,-21.484375
126.83203125,-27.83203125,-50.78125,-47.8515625,-44.43359375
126.8359375,-44.921875,6.34765625,-52.24609375,-68.359375
126.83984375,-8.7890625,8.7890625,-41.9921875,-64.453125
126.84375,38.57421875,-59.5703125,-38.0859375,-29.296875
126.84765625,25.87890625,-58.59375,-43.9453125,-36.62109375
126.8515625,-65.91796875,-42.48046875,-48.33984375,-64.453125
126.85546875,-72.265625,-31.73828125,-41.50390625,-43.9453125
126.859375,20.01953125,-44.921875,-31.25,-15.625
126.86328125,25.87890625,-45.41015625,-33.69140625,-24.90234375
126.8671875,-37.59765625,-44.921875,-38.0859375,-50.29296875
126.87109375,-65.4296875,-52.734375,-41.015625,-42.48046875
126.875,-24.4140625,-78.61328125,-41.9921875,-28.3203125
126.87890625,-7.8125,-82.03125,-39.0625,-51.26953125
126.8828125,-35.15625,-38.57421875,-37.59765625,-53.22265625
126.88671875,-77.63671875,-39.0625,-38.57421875,-52.734375
126.890625,-35.64453125,-38.57421875,-33.203125,-30.2734375
126.89453125,38.0859375,-27.34375,-36.1328125,11.23046875
126.8984375,-42.48046875,-31.25,-41.50390625,-40.0390625
126.90234375,-115.72265625,-28.80859375,-36.1328125,-86.42578125
126.90625,-49.31640625,-34.1796875,-33.69140625,-49.31640625
126.91015625,15.625,-41.9921875,-27.34375,-16.11328125
126.9140625,-19.53125,-50.78125,-32.2265625,-61.5234375
126.91796875,-90.8203125,-103.02734375,-43.9453125,-90.33203125
126.921875,-95.21484375,-81.54296875,-46.875,-62.01171875
126.92578125,-11.71875,-24.4140625,-41.9921875,-47.8515625
126.9296875,-16.6015625,-27.83203125,-32.2265625,-89.35546875
126.93359375,-87.40234375,-29.78515625,-33.203125,-109.375
126.9375,-99.12109375,-35.64453125,-39.55078125,-83.984375
126.94140625,-62.01171875,-40.52734375,-33.69140625,-58.59375
126.9453125,-40.0390625,-38.57421875,-29.296875,-53.7109375
126.94921875,-83.49609375,-37.59765625,-33.203125,-78.61328125
126.953125,-93.75,-13.671875,-39.0625,-73.2421875
126.95703125,-51.26953125,1.46484375,-38.57421875,-37.109375
126.9609375,-16.6015625,0.48828125,-37.59765625,-39.55078125
126.96484375,-61.5234375,-29.296875,-36.62109375,-83.0078125
126.96875,-135.7421875,-52.24609375,-36.62109375,-101.5625
126.97265625,-113.28125,-32.2265625,-34.66796875,-82.51953125
126.9765625,-41.50390625,-63.4765625,-34.66796875,-50.78125
126.98046875,-47.8515625,-61.03515625,-42.48046875,-87.40234375
126.984375,-102.05078125,-23.92578125,-47.8515625,-107.91015625
126.98828125,-104.4921875,-34.1796875,-43.45703125,-46.38671875
126.9921875,-41.015625,-14.16015625,-40.52734375,-1.953125
126.99609375,-3.90625,-1.46484375,-39.0625,-28.3203125
127.0,-64.94140625,-27.34375,-36.1328125,-55.6640625
127.00390625,-103.515625,-25.390625,-37.109375,-41.9921875
127.0078125,-48.33984375,-15.625,-33.203125,-30.2734375
127.01171875,-6.8359375,-0.48828125,-31.25,-29.296875
127.015625,-41.015625,-52.734375,-32.2265625,-43.45703125
127.01953125,-103.515625,-116.2109375,-36.1328125,-61.5234375
127.0234375,-86.9140625,-47.8515625,-32.2265625,-23.4375
127.02734375,-25.390625,-21.97265625,-24.4140625,-0.9765625
127.03125,-26.3671875,-30.2734375,-21.484375,-30.76171875
127.03515625,-84.47265625,-32.71484375,-27.83203125,-55.6640625
127.0390625,-67.3828125,-15.13671875,-37.59765625,-41.015625
127.04296875,15.13671875,8.7890625,-35.15625,-5.37109375
127.046875,-5.859375,9.765625,-36.1328125,-28.80859375
127.05078125,-97.65625,-0.48828125,-39.55078125,-65.4296875
127.0546875,-91.796875,-32.2265625,-40.52734375,-59.08203125
127.05859375,-20.5078125,-65.4296875,-40.52734375,-32.2265625
127.0625,-20.01953125,-32.71484375,-41.015625,-12.20703125
127.06640625,-61.03515625,16.11328125,-44.43359375,-31.73828125
127.0703125,-65.91796875,19.04296875,-46.875,-45.41015625
127.07421875,-30.76171875,-12.6953125,-41.015625,-24.90234375
127.078125,-15.625,-13.18359375,-35.64453125,-44.43359375
127.08203125,-41.015625,-4.39453125,-32.71484375,-78.61328125
127.0859375,-92.28515625,-7.32421875,-35.64453125,-61.5234375
127.08984375,-45.8984375,2.44140625,-38.57421875,-30.2734375
127.09375,14.16015625,15.625,-41.015625,-22.4609375
127.09765625,-47.8515625,9.765625,-42.48046875,-41.50390625
127.1015625,-92.28515625,-4.39453125,-34.66796875,-59.5703125
127.10546875,-65.91796875,-2.9296875,-28.80859375,-23.92578125
127.109375,-1.953125,11.23046875,-26.85546875,26.3671875
127.11328125,-1.46484375,19.53125,-32.2265625,-7.32421875
127.1171875,-76.171875,21.97265625,-35.64453125,-55.17578125
127.12109375,-62.5,12.20703125,-29.296875,-50.29296875
127.125,-21.484375,-10.7421875,-24.4140625,-10.25390625
127.12890625,-3.41796875,-11.71875,-26.85546875,-8.30078125
127.1328125,-41.015625,-31.25,-29.296875,-33.69140625
127.13671875,-67.87109375,-11.71875,-30.2734375,-29.78515625
127.140625,-13.18359375,30.76171875,-31.73828125,-6.34765625
127.14453125,-10.7421875,30.2734375,-31.73828125,1.953125
127.1484375,-58.59375,41.015625,-32.2265625,-23.92578125
127.15234375,-107.91015625,35.15625,-30.2734375,-57.6171875
127.15625,-80.078125,-45.41015625,-26.85546875,-36.62109375
127.16015625,-28.3203125,-70.3125,-21.97265625,3.90625
127.1640625,-62.98828125,-6.34765625,-21.484375,-15.625
127.16796875,-107.91015625,12.6953125,-19.53125,-41.015625
127.171875,-80.078125,18.5546875,-18.06640625,-23.92578125
127.17578125,-5.859375,11.71875,-18.06640625,6.8359375
127.1796875,-4.8828125,10.25390625,-14.6484375,21.484375
127.18359375,-79.1015625,13.18359375,-18.06640625,-3.41796875
127.1875,-102.05078125,13.671875,-19.04296875,-6.8359375
127.19140625,-43.45703125,24.4140625,-16.11328125,13.671875
127.1953125,4.39453125,-16.11328125,-20.01953125,14.16015625
127.19921875,-61.5234375,-41.015625,-23.4375,-1.46484375
127.203125,-116.69921875,20.5078125,-23.4375,-4.39453125
127.20703125,-69.3359375,37.109375,-15.13671875,16.11328125
127.2109375,-36.1328125,28.3203125,-16.6015625,9.765625
127.21484375,-56.15234375,18.5546875,-21.484375,-16.6015625
127.21875,-102.5390625,-3.90625,-20.5078125,-17.578125
127.22265625,-88.8671875,-15.13671875,-23.92578125,6.34765625
127.2265625,-29.78515625,-8.30078125,-20.5078125,16.6015625
127.23046875,-42.48046875,0.0,-17.578125,0.0
127.234375,-84.47265625,14.16015625,-21.484375,-34.66796875
127.23828125,-74.21875,9.765625,-17.578125,-1.953125
127.2421875,-37.109375,-2.9296875,-19.53125,29.78515625
127.24609375,-44.921875,21.97265625,-24.90234375,1.953125
127.25,-91.30859375,37.109375,-17.578125,-0.48828125
127.25390625,-112.3046875,15.625,-15.13671875,-5.37109375
127.2578125,-51.7578125,-9.765625,-17.08984375,7.32421875
127.26171875,4.39453125,7.32421875,-20.99609375,13.18359375
127.265625,-60.05859375,27.34375,-24.90234375,-11.23046875
127.26953125,-125.48828125,26.3671875,-24.90234375,-8.30078125
127.2734375,-85.44921875,12.6953125,-18.5546875,29.296875
127.27734375,-53.22265625,11.71875,-18.06640625,40.52734375
127.28125,-84.9609375,11.23046875,-15.13671875,12.20703125
127.28515625,-110.3515625,13.671875,-10.25390625,-20.01953125
127.2890625,-83.984375,14.6484375,-15.625,-4.39453125
127.29296875,-49.31640625,18.5546875,-21.484375,9.27734375
127.296875,-62.5,2.9296875,-20.01953125,6.34765625
127.30078125,-116.2109375,7.8125,-18.06640625,13.671875
127.3046875,-125.0,33.69140625,-19.04296875,26.85546875
127.30859375,-57.12890625,37.109375,-27.34375,40.52734375
127.3125,-30.76171875,46.875,-28.80859375,10.25390625
127.31640625,-94.23828125,45.8984375,-26.85546875,-3.41796875
127.3203125,-134.27734375,8.7890625,-26.3671875,3.90625
127.32421875,-95.21484375,8.30078125,-21.97265625,10.25390625
127.328125,-38.57421875,22.94921875,-34.1796875,37.109375
127.33203125,-46.38671875,-10.7421875,-41.9921875,28.80859375
127.3359375,-81.0546875,68.359375,-30.2734375,13.18359375
127.33984375,-72.75390625,108.3984375,-22.94921875,17.578125
127.34375,-36.62109375,23.92578125,-24.90234375,13.671875
127.34765625,-41.50390625,12.6953125,-25.390625,12.20703125
127.3515625,-113.28125,5.859375,-23.92578125,-3.90625
127.35546875,-132.32421875,5.37109375,-23.92578125,-9.765625
127.359375,-35.64453125,-1.953125,-20.5078125,37.109375
127.36328125,-25.87890625,-4.8828125,-20.01953125,39.0625
127.3671875,-119.140625,20.5078125,-28.80859375,-9.27734375
127.37109375,-89.84375,26.3671875,-25.390625,0.0
127.375,-67.3828125,17.578125,-22.4609375,50.78125
127.37890625,-117.1875,7.8125,-25.390625,33.203125
127.3828125,-128.41796875,10.25390625,-25.390625,0.0
127.38671875,-135.25390625,39.0625,-28.80859375,-12.6953125
127.390625,-117.1875,14.16015625,-31.73828125,-13.18359375
127.39453125,-81.0546875,44.43359375,-27.34375,14.16015625
127.3984375,-122.0703125,123.046875,-28.3203125,-18.06640625
127.40234375,-165.52734375,60.05859375,-29.78515625,-67.3828125
127.40625,-114.2578125,19.53125,-26.3671875,-37.59765625
127.41015625,-74.70703125,26.3671875,-28.80859375,-19.53125
127.4140625,-105.95703125,32.71484375,-27.83203125,-47.36328125
127.41796875,-160.64453125,42.48046875,-24.4140625,-74.21875
127.421875,-188.96484375,35.64453125,-28.80859375,-90.33203125
127.42578125,-141.11328125,23.92578125,-34.66796875,-86.42578125
127.4296875,-95.21484375,32.71484375,-43.9453125,-85.44921875
127.43359375,-121.58203125,50.29296875,-44.43359375,-89.84375
127.4375,-169.921875,59.08203125,-36.62109375,-112.3046875
127.44140625,-158.203125,74.21875,-34.66796875,-105.95703125
127.4453125,-110.3515625,88.37890625,-38.57421875,-89.84375
127.44921875,-137.20703125,82.51953125,-43.45703125,-120.60546875
127.453125,-188.4765625,62.01171875,-40.0390625,-117.67578125
127.45703125,-124.0234375,42.48046875,-36.62109375,-58.59375
127.4609375,-26.3671875,48.33984375,-36.1328125,-20.5078125
127.46484375,-23.4375,65.91796875,-41.015625,-18.06640625
127.46875,-53.22265625,74.21875,-47.36328125,-39.55078125
127.47265625,-17.578125,80.56640625,-45.41015625,-9.27734375
127.4765625,66.40625,-27.83203125,-44.43359375,43.9453125
127.48046875,-12.20703125,-24.90234375,-51.26953125,34.66796875
127.484375,-128.41796875,77.63671875,-48.33984375,23.4375
127.48828125,-82.03125,65.4296875,-40.52734375,54.19921875
127.4921875,14.6484375,61.5234375,-43.45703125,81.0546875
127.49609375,30.76171875,40.52734375,-49.8046875,74.21875
127.5,-40.0390625,43.9453125,-52.24609375,32.71484375
127.50390625,-23.4375,56.15234375,-46.875,31.25
127.5078125,36.62109375,35.64453125,-41.9921875,50.29296875
127.51171875,49.31640625,24.4140625,-39.0625,49.8046875
127.515625,-17.578125,26.85546875,-40.0390625,37.109375
127.51953125,-66.89453125,30.76171875,-43.9453125,24.4140625
127.5234375,-5.37109375,29.296875,-45.41015625,75.1953125
127.52734375,53.22265625,20.01953125,-41.015625,114.74609375
127.53125,31.73828125,38.57421875,-40.52734375,94.23828125
127.53515625,-23.92578125,-0.48828125,-42.48046875,55.6640625
127.5390625,-5.37109375,-38.57421875,-43.45703125,77.1484375
127.54296875,37.109375,15.625,-41.50390625,108.88671875
127.546875,17.08984375,28.3203125,-38.57421875,74.21875
127.55078125,-30.2734375,22.4609375,-39.55078125,41.50390625
127.5546875,-33.69140625,14.16015625,-37.59765625,62.5
127.55859375,18.5546875,13.18359375,-38.57421875,76.66015625
127.5625,66.89453125,35.64453125,-44.43359375,62.5
127.56640625,17.578125,36.62109375,-45.41015625,49.31640625
127.5703125,-51.7578125,23.92578125,-41.50390625,37.109375
127.57421875,-0.9765625,1.46484375,-41.9921875,76.171875
127.578125,25.87890625,-63.4765625,-40.0390625,84.9609375
127.58203125,-62.01171875,-29.296875,-31.73828125,24.90234375
127.5859375,-92.7734375,-9.765625,-28.3203125,-2.44140625
127.58984375,-49.8046875,-17.08984375,-32.2265625,20.5078125
127.59375,17.08984375,33.203125,-29.296875,63.96484375
127.59765625,0.48828125,60.05859375,-32.2265625,49.8046875
127.6015625,-57.12890625,45.41015625,-36.62109375,38.57421875
127.60546875,-49.31640625,19.04296875,-27.83203125,51.26953125
127.609375,22.94921875,6.8359375,-32.2265625,75.68359375
127.61328125,35.15625,19.04296875,-39.0625,53.7109375
127.6171875,-62.5,-59.08203125,-32.71484375,6.8359375
127.62109375,-106.93359375,-46.875,-36.1328125,25.390625
127.625,-22.94921875,41.015625,-40.0390625,74.70703125
127.62890625,17.08984375,12.6953125,-33.69140625,79.1015625
127.6328125,-77.63671875,-0.48828125,-29.296875,21.97265625
127.63671875,-96.19140625,4.39453125,-24.90234375,2.44140625
127.640625,-42.48046875,9.27734375,-25.87890625,24.90234375
127.64453125,-32.2265625,27.34375,-28.3203125,31.25
127.6484375,-65.91796875,21.484375,-24.90234375,5.37109375
127.65234375,-77.1484375,27.34375,-28.3203125,11.23046875
127.65625,-52.24609375,39.0625,-37.109375,47.8515625
127.66015625,12.20703125,40.0390625,-32.2265625,54.19921875
127.6640625,1.46484375,35.15625,-25.390625,20.5078125
127.66796875,-87.40234375,23.92578125,-27.34375,-9.27734375
127.671875,-76.171875,6.34765625,-29.296875,26.85546875
127.67578125,-1.46484375,-8.7890625,-32.2265625,75.1953125
127.6796875,-10.7421875,-9.765625,-31.73828125,60.546875
127.68359375,-85.9375,11.23046875,-29.296875,0.9765625
127.6875,-113.28125,22.4609375,-31.73828125,3.90625
127.69140625,-70.80078125,-5.859375,-32.71484375,38.0859375
127.6953125,-2.9296875,2.9296875,-33.203125,32.2265625
127.69921875,-38.0859375,34.1796875,-35.15625,5.37109375
127.703125,-97.65625,47.8515625,-37.59765625,-10.25390625
127.70703125,-28.80859375,39.0625,-32.2265625,24.4140625
127.7109375,11.71875,34.66796875,-31.73828125,25.390625
127.71484375,-69.82421875,0.0,-38.0859375,-24.90234375
127.71875,-144.53125,-72.265625,-39.0625,-27.83203125
127.72265625,-104.00390625,-21.97265625,-38.0859375,18.06640625
127.7265625,-34.1796875,7.32421875,-39.0625,28.3203125
127.73046875,-46.38671875,6.8359375,-39.0625,-6.34765625
127.734375,-83.984375,20.5078125,-42.48046875,-30.2734375
127.73828125,-65.4296875,20.5078125,-44.43359375,-0.48828125
127.7421875,17.08984375,21.97265625,-45.41015625,24.90234375
127.74609375,6.8359375,21.97265625,-42.96875,-5.859375
127.75,-89.35546875,19.04296875,-37.59765625,-32.71484375
127.75390625,-104.98046875,24.90234375,-50.29296875,3.41796875
127.7578125,-20.5078125,62.98828125,-53.7109375,62.5
127.76171875,-12.6953125,25.390625,-33.69140625,39.0625
127.765625,-66.40625,-9.765625,-32.2265625,-7.8125
127.76953125,-105.46875,-2.9296875,-43.45703125,8.7890625
127.7734375,-57.12890625,0.48828125,-42.48046875,38.0859375
127.77734375,20.99609375,10.7421875,-38.57421875,25.390625
127.78125,-49.8046875,7.8125,-41.015625,3.90625
127.78515625,-138.671875,5.37109375,-42.96875,-9.27734375
127.7890625,-107.91015625,5.37109375,-46.38671875,-3.90625
127.79296875,-19.53125,5.859375,-53.7109375,25.87890625
127.796875,-25.87890625,-5.859375,-53.7109375,32.2265625
127.80078125,-101.07421875,-19.04296875,-50.78125,-8.30078125
127.8046875,-91.796875,-14.6484375,-57.12890625,-10.25390625
127.80859375,-23.4375,-0.48828125,-58.59375,58.59375
127.8125,-16.11328125,5.859375,-49.8046875,63.96484375
127.81640625,-99.12109375,-14.16015625,-46.38671875,31.73828125
127.8203125,-110.83984375,-39.55078125,-49.8046875,29.78515625
127.82421875,-34.66796875,-10.25390625,-48.33984375,49.31640625
127.828125,-29.296875,9.27734375,-44.43359375,44.921875
127.83203125,-98.14453125,-6.34765625,-48.33984375,1.46484375
127.8359375,-123.53515625,-4.8828125,-50.29296875,-33.203125
127.83984375,-79.1015625,-7.8125,-47.8515625,-4.39453125
127.84375,-47.8515625,-27.34375,-42.96875,25.390625
127.84765625,-78.125,-31.73828125,-39.0625,-13.18359375
127.8515625,-123.046875,-26.85546875,-40.52734375,-54.6875
127.85546875,-91.796875,-10.7421875,-33.69140625,-3.90625
127.859375,-6.34765625,14.6484375,-32.2265625,56.640625
127.86328125,-24.90234375,-1.953125,-34.66796875,33.203125
127.8671875,-116.69921875,-20.99609375,-37.59765625,-14.16015625
127.87109375,-101.5625,-21.484375,-44.43359375,-21.484375
127.875,-13.18359375,-16.6015625,-46.38671875,28.3203125
127.87890625,13.671875,-3.90625,-43.45703125,53.22265625
127.8828125,-54.6875,-0.48828125,-46.38671875,20.01953125
127.88671875,-101.07421875,-35.64453125,-41.9921875,-21.484375
