Timestamp,TP9,AF7,AF8,TP10
0.00390625,-43.45703125,-41.9921875,-27.34375,-75.68359375
0.0078125,-152.83203125,-45.41015625,-35.64453125,-240.234375
0.01171875,-43.45703125,-41.9921875,-34.66796875,-20.99609375
0.015625,75.68359375,-37.109375,-28.80859375,180.17578125
0.01953125,-13.671875,-36.62109375,-30.2734375,2.9296875
0.0234375,-154.78515625,-38.57421875,-36.62109375,-237.3046875
0.02734375,-106.4453125,-43.9453125,-41.9921875,-112.79296875
0.03125,38.57421875,-42.48046875,-43.9453125,150.87890625
0.03515625,7.8125,-40.52734375,-46.38671875,63.96484375
0.0390625,-145.5078125,-43.9453125,-46.875,-220.703125
0.04296875,-152.34375,-39.0625,-40.0390625,-184.08203125
0.046875,13.18359375,-35.64453125,-41.9921875,118.65234375
0.05078125,61.5234375,-38.0859375,-39.55078125,144.53125
0.0546875,-104.98046875,-39.55078125,-37.109375,-149.90234375
0.05859375,-171.38671875,-34.1796875,-37.59765625,-236.328125
0.0625,-17.578125,-33.203125,-35.15625,29.78515625
0.06640625,69.82421875,-35.64453125,-34.66796875,159.66796875
0.0703125,-56.640625,-35.15625,-37.59765625,-83.984375
0.07421875,-169.43359375,-40.52734375,-40.52734375,-258.30078125
0.078125,-71.77734375,-43.45703125,-39.55078125,-59.5703125
0.08203125,73.73046875,-40.52734375,-31.25,160.64453125
0.0859375,5.859375,-39.0625,-22.4609375,17.08984375
0.08984375,-143.5546875,-40.0390625,-28.80859375,-228.02734375
0.09375,-82.03125,-37.59765625,-31.25,-97.16796875
0.09765625,61.03515625,-40.52734375,-32.71484375,171.38671875
0.1015625,29.78515625,-40.52734375,-34.66796875,88.8671875
0.10546875,-116.69921875,-39.0625,-34.1796875,-188.96484375
0.109375,-129.8828125,-39.55078125,-35.64453125,-173.33984375
0.11328125,29.78515625,-36.1328125,-34.66796875,110.83984375
0.1171875,75.68359375,-37.109375,-40.52734375,151.85546875
0.12109375,-79.1015625,-39.0625,-39.0625,-127.44140625
0.125,-139.16015625,-38.57421875,-28.80859375,-219.23828125
0.12890625,-8.7890625,-35.15625,-34.1796875,36.62109375
0.1328125,76.66015625,-37.109375,-39.0625,177.24609375
0.13671875,-41.9921875,-41.015625,-38.57421875,-46.38671875
0.140625,-150.87890625,-39.0625,-38.57421875,-237.3046875
0.14453125,-58.10546875,-37.109375,-35.15625,-61.5234375
0.1484375,69.82421875,-35.15625,-33.69140625,161.62109375
0.15234375,15.625,-37.109375,-33.203125,21.97265625
0.15625,-131.34765625,-41.015625,-35.64453125,-238.28125
0.16015625,-106.4453125,-41.50390625,-35.15625,-155.76171875
0.1640625,68.84765625,-38.0859375,-31.25,139.16015625
0.16796875,57.6171875,-36.1328125,-30.76171875,97.16796875
0.171875,-134.27734375,-41.015625,-31.73828125,-216.30859375
0.17578125,-163.0859375,-43.45703125,-35.64453125,-236.81640625
0.1796875,-0.9765625,-44.43359375,-36.1328125,56.15234375
0.18359375,41.50390625,-47.36328125,-32.2265625,124.51171875
0.1875,-91.30859375,-47.8515625,-33.203125,-133.30078125
0.19140625,-160.15625,-41.9921875,-33.203125,-259.765625
0.1953125,-43.45703125,-38.0859375,-30.76171875,-26.3671875
0.19921875,61.5234375,-39.55078125,-30.76171875,148.4375
0.203125,-33.203125,-39.0625,-31.25,-54.19921875
0.20703125,-137.6953125,-37.109375,-28.3203125,-250.48828125
0.2109375,-55.6640625,-35.15625,-33.203125,-68.84765625
0.21484375,59.08203125,-37.109375,-37.59765625,159.66796875
0.21875,10.25390625,-41.50390625,-37.109375,35.15625
0.22265625,-131.8359375,-45.41015625,-41.015625,-219.23828125
0.2265625,-103.515625,-41.9921875,-41.015625,-132.8125
0.23046875,49.8046875,-37.109375,-35.64453125,146.97265625
0.234375,41.9921875,-36.1328125,-38.57421875,98.14453125
0.23828125,-111.328125,-35.15625,-44.921875,-189.94140625
0.2421875,-135.25390625,-36.1328125,-41.50390625,-207.51953125
0.24609375,20.01953125,-36.62109375,-40.0390625,83.49609375
0.25,74.70703125,-39.0625,-37.59765625,171.38671875
0.25390625,-64.94140625,-42.48046875,-38.0859375,-101.07421875
0.2578125,-152.34375,-41.015625,-38.0859375,-248.046875
0.26171875,-51.7578125,-41.015625,-34.66796875,-32.2265625
0.265625,76.66015625,-37.59765625,-35.64453125,159.66796875
0.26953125,6.34765625,-34.1796875,-33.203125,-19.04296875
0.2734375,-132.32421875,-38.57421875,-32.71484375,-236.81640625
0.27734375,-88.37890625,-42.96875,-34.1796875,-103.02734375
0.28125,64.94140625,-40.52734375,-31.25,147.94921875
0.28515625,40.0390625,-43.9453125,-32.2265625,64.453125
0.2890625,-125.0,-44.921875,-34.1796875,-204.58984375
0.29296875,-135.7421875,-41.9921875,-27.83203125,-175.29296875
0.296875,24.4140625,-39.55078125,-27.34375,109.375
0.30078125,77.63671875,-32.2265625,-26.85546875,145.01953125
0.3046875,-92.7734375,-37.59765625,-29.296875,-154.78515625
0.30859375,-157.71484375,-38.0859375,-30.76171875,-235.3515625
0.3125,6.34765625,-34.66796875,-24.90234375,47.36328125
0.31640625,90.33203125,-42.48046875,-27.83203125,172.8515625
0.3203125,-40.0390625,-47.36328125,-28.3203125,-68.359375
0.32421875,-148.4375,-47.36328125,-28.80859375,-230.46875
0.328125,-48.33984375,-42.96875,-31.25,-28.80859375
0.33203125,81.0546875,-41.015625,-26.3671875,164.0625
0.3359375,-4.39453125,-44.921875,-22.94921875,-5.37109375
0.33984375,-141.6015625,-43.9453125,-25.87890625,-238.28125
0.34375,-69.3359375,-41.9921875,-25.390625,-97.65625
0.34765625,65.91796875,-39.55078125,-22.94921875,160.15625
0.3515625,15.625,-36.62109375,-26.3671875,63.4765625
0.35546875,-147.4609375,-41.50390625,-34.1796875,-225.5859375
0.359375,-133.7890625,-45.8984375,-37.59765625,-192.3828125
0.36328125,30.76171875,-41.015625,-32.71484375,114.2578125
0.3671875,59.5703125,-40.52734375,-31.73828125,148.4375
0.37109375,-88.37890625,-45.8984375,-34.1796875,-145.5078125
0.375,-134.27734375,-44.921875,-32.2265625,-225.09765625
0.37890625,-6.34765625,-43.45703125,-24.90234375,35.64453125
0.3828125,82.51953125,-45.41015625,-24.4140625,176.26953125
0.38671875,-31.25,-46.38671875,-32.71484375,-51.26953125
0.390625,-139.16015625,-43.9453125,-34.66796875,-234.375
0.39453125,-45.8984375,-36.62109375,-26.85546875,-31.73828125
0.3984375,75.1953125,-36.1328125,-27.83203125,184.5703125
0.40234375,2.9296875,-41.9921875,-33.69140625,40.52734375
0.40625,-134.27734375,-44.43359375,-32.2265625,-199.70703125
0.41015625,-99.12109375,-39.0625,-32.2265625,-119.140625
0.4140625,45.41015625,-36.1328125,-27.83203125,152.34375
0.41796875,50.29296875,-33.69140625,-27.34375,115.72265625
0.421875,-99.12109375,-37.59765625,-35.15625,-169.921875
0.42578125,-134.765625,-42.48046875,-37.59765625,-191.40625
0.4296875,10.25390625,-39.0625,-34.1796875,79.1015625
0.43359375,70.80078125,-37.59765625,-33.203125,154.296875
0.4375,-67.3828125,-41.015625,-33.203125,-105.46875
0.44140625,-144.53125,-38.57421875,-32.2265625,-223.6328125
0.4453125,-30.2734375,-35.64453125,-36.62109375,20.99609375
0.44921875,62.98828125,-40.52734375,-41.50390625,180.17578125
0.453125,-36.62109375,-41.9921875,-42.96875,-31.73828125
0.45703125,-155.2734375,-41.50390625,-38.0859375,-238.28125
0.4609375,-64.94140625,-39.55078125,-30.76171875,-68.84765625
0.46484375,70.80078125,-38.57421875,-29.78515625,171.875
0.46875,21.97265625,-38.57421875,-28.80859375,54.19921875
0.47265625,-120.1171875,-37.59765625,-26.85546875,-205.56640625
0.4765625,-94.7265625,-38.57421875,-28.80859375,-138.671875
0.48046875,44.921875,-35.15625,-31.73828125,131.34765625
0.484375,36.62109375,-33.203125,-34.1796875,100.09765625
0.48828125,-111.81640625,-36.1328125,-30.2734375,-192.87109375
0.4921875,-142.578125,-39.0625,-31.73828125,-231.93359375
0.49609375,-12.6953125,-39.0625,-34.66796875,41.015625
0.5,57.6171875,-38.57421875,-31.73828125,136.71875
0.50390625,-64.453125,-39.0625,-33.69140625,-123.046875
0.5078125,-161.62109375,-40.52734375,-39.0625,-274.4140625
0.51171875,-49.8046875,-36.62109375,-43.45703125,-42.48046875
0.515625,80.078125,-29.78515625,-35.64453125,162.109375
0.51953125,-7.8125,-33.203125,-31.73828125,-28.3203125
0.5234375,-148.92578125,-33.69140625,-37.59765625,-250.48828125
0.52734375,-79.1015625,-31.25,-33.69140625,-93.26171875
0.53125,71.77734375,-30.2734375,-27.34375,156.73828125
0.53515625,44.921875,-28.3203125,-30.2734375,62.98828125
0.5390625,-112.3046875,-32.71484375,-41.015625,-214.35546875
0.54296875,-111.81640625,-35.64453125,-44.43359375,-180.6640625
0.546875,61.03515625,-32.71484375,-43.9453125,109.375
0.55078125,84.47265625,-29.296875,-44.921875,117.1875
0.5546875,-70.3125,-30.76171875,-39.55078125,-158.69140625
0.55859375,-111.81640625,-31.73828125,-34.1796875,-203.61328125
0.5625,6.34765625,-32.2265625,-31.73828125,58.10546875
0.56640625,76.66015625,-31.25,-33.69140625,159.1796875
0.5703125,-49.31640625,-36.1328125,-40.0390625,-90.8203125
0.57421875,-155.76171875,-38.57421875,-40.0390625,-248.53515625
0.578125,-44.43359375,-38.0859375,-38.0859375,-22.4609375
0.58203125,73.73046875,-34.66796875,-41.015625,183.10546875
0.5859375,-27.34375,-33.203125,-34.66796875,-10.7421875
0.58984375,-190.91796875,-37.59765625,-32.71484375,-278.80859375
0.59375,-125.9765625,-35.64453125,-36.1328125,-147.4609375
0.59765625,40.52734375,-34.66796875,-33.69140625,137.6953125
0.6015625,-1.953125,-38.0859375,-30.76171875,57.6171875
0.60546875,-153.80859375,-38.0859375,-28.80859375,-216.796875
0.609375,-134.27734375,-35.15625,-25.390625,-182.12890625
0.61328125,26.3671875,-28.80859375,-20.01953125,111.328125
0.6171875,58.10546875,-32.2265625,-25.87890625,145.99609375
0.62109375,-82.03125,-35.15625,-33.203125,-130.37109375
0.625,-123.046875,-32.2265625,-30.76171875,-199.70703125
0.62890625,10.7421875,-30.2734375,-26.85546875,59.5703125
0.6328125,88.8671875,-28.80859375,-29.78515625,185.546875
0.63671875,-37.109375,-35.64453125,-37.109375,-57.12890625
0.640625,-147.94921875,-37.59765625,-33.69140625,-240.72265625
0.64453125,-55.6640625,-31.73828125,-33.203125,-50.78125
0.6484375,71.2890625,-34.66796875,-37.59765625,164.55078125
0.65234375,-13.671875,-38.57421875,-41.50390625,-1.46484375
0.65625,-156.25,-39.0625,-45.8984375,-249.0234375
0.66015625,-107.421875,-39.55078125,-44.921875,-128.90625
0.6640625,35.64453125,-38.0859375,-42.48046875,143.5546875
0.66796875,20.99609375,-36.62109375,-39.55078125,91.30859375
0.671875,-123.046875,-38.57421875,-41.015625,-192.87109375
0.67578125,-128.90625,-43.45703125,-45.8984375,-199.70703125
0.6796875,8.7890625,-45.41015625,-48.33984375,79.1015625
0.68359375,48.828125,-44.921875,-51.26953125,128.90625
0.6875,-80.078125,-42.96875,-49.31640625,-136.71875
0.69140625,-149.4140625,-46.38671875,-48.828125,-248.046875
0.6953125,-38.0859375,-47.36328125,-51.26953125,-6.8359375
0.69921875,66.89453125,-41.015625,-47.8515625,170.41015625
0.703125,-29.78515625,-42.48046875,-42.96875,-44.921875
0.70703125,-146.484375,-40.0390625,-38.57421875,-241.69921875
0.7109375,-72.265625,-38.0859375,-43.45703125,-56.640625
0.71484375,73.2421875,-40.0390625,-45.41015625,182.12890625
0.71875,22.4609375,-40.0390625,-41.50390625,49.31640625
0.72265625,-140.625,-43.9453125,-39.55078125,-218.75
0.7265625,-104.00390625,-46.875,-39.55078125,-128.41796875
0.73046875,47.36328125,-43.9453125,-38.57421875,152.34375
0.734375,54.19921875,-39.55078125,-33.69140625,132.8125
0.73828125,-96.19140625,-45.8984375,-37.59765625,-153.3203125
0.7421875,-136.23046875,-44.921875,-39.0625,-181.640625
0.74609375,14.6484375,-41.9921875,-30.76171875,100.5859375
0.75,85.44921875,-41.50390625,-22.4609375,174.8046875
0.75390625,-46.38671875,-39.55078125,-25.87890625,-78.125
0.7578125,-138.18359375,-37.59765625,-27.83203125,-208.49609375
0.76171875,-33.69140625,-37.109375,-28.80859375,12.6953125
0.765625,81.0546875,-39.55078125,-32.2265625,191.89453125
0.76953125,-8.30078125,-35.64453125,-32.71484375,-4.39453125
0.7734375,-138.671875,-37.59765625,-35.15625,-223.6328125
0.77734375,-71.77734375,-42.96875,-37.109375,-72.75390625
0.78125,88.37890625,-37.59765625,-32.2265625,189.94140625
0.78515625,46.875,-39.0625,-29.296875,82.03125
0.7890625,-111.81640625,-41.50390625,-34.1796875,-202.1484375
0.79296875,-107.421875,-39.0625,-34.66796875,-144.04296875
0.796875,52.24609375,-38.0859375,-32.71484375,144.53125
0.80078125,77.63671875,-35.64453125,-29.78515625,132.32421875
0.8046875,-74.70703125,-36.62109375,-30.76171875,-135.7421875
0.80859375,-124.51171875,-39.55078125,-35.15625,-182.12890625
0.8125,10.7421875,-39.0625,-23.92578125,74.21875
0.81640625,92.28515625,-36.62109375,-23.4375,179.19921875
0.8203125,-44.921875,-33.203125,-31.73828125,-82.03125
0.82421875,-157.2265625,-37.109375,-30.76171875,-253.41796875
0.828125,-54.19921875,-39.0625,-33.203125,-43.45703125
0.83203125,83.0078125,-37.109375,-31.73828125,172.36328125
0.8359375,-4.8828125,-40.52734375,-34.66796875,-2.9296875
0.83984375,-145.99609375,-44.43359375,-38.57421875,-244.140625
0.84375,-80.078125,-41.015625,-36.1328125,-104.98046875
0.84765625,74.21875,-34.66796875,-34.66796875,166.50390625
0.8515625,49.8046875,-35.15625,-33.69140625,81.0546875
0.85546875,-124.51171875,-39.0625,-38.57421875,-207.03125
0.859375,-132.8125,-38.0859375,-36.62109375,-170.8984375
0.86328125,31.25,-36.1328125,-31.73828125,119.140625
0.8671875,55.17578125,-41.9921875,-36.62109375,130.859375
0.87109375,-98.14453125,-40.0390625,-37.59765625,-147.94921875
0.875,-150.87890625,-36.1328125,-33.69140625,-223.6328125
0.87890625,-23.4375,-35.15625,-37.109375,25.87890625
0.8828125,67.3828125,-31.73828125,-38.0859375,161.62109375
0.88671875,-42.96875,-33.69140625,-35.15625,-65.4296875
0.890625,-135.7421875,-37.109375,-39.55078125,-234.375
0.89453125,-44.43359375,-32.71484375,-44.43359375,-37.59765625
0.8984375,82.51953125,-33.203125,-39.55078125,172.36328125
0.90234375,22.94921875,-34.66796875,-36.1328125,18.06640625
0.90625,-126.46484375,-34.66796875,-38.0859375,-227.05078125
0.91015625,-76.66015625,-35.15625,-37.59765625,-110.3515625
0.9140625,77.1484375,-36.1328125,-39.55078125,150.87890625
0.91796875,39.0625,-33.203125,-42.96875,69.82421875
0.921875,-103.02734375,-28.3203125,-45.41015625,-202.1484375
0.92578125,-115.234375,-28.80859375,-45.41015625,-196.2890625
0.9296875,33.69140625,-32.71484375,-40.52734375,83.49609375
0.93359375,84.9609375,-36.1328125,-41.50390625,132.32421875
0.9375,-70.3125,-36.62109375,-45.41015625,-144.04296875
0.94140625,-129.39453125,-35.15625,-42.96875,-234.86328125
0.9453125,5.37109375,-33.203125,-36.62109375,27.83203125
0.94921875,97.16796875,-37.109375,-38.0859375,183.10546875
0.953125,-23.4375,-38.0859375,-41.9921875,-38.57421875
0.95703125,-146.484375,-38.0859375,-41.9921875,-238.76953125
0.9609375,-69.3359375,-36.1328125,-42.96875,-71.2890625
0.96484375,53.7109375,-35.15625,-41.9921875,157.2265625
0.96875,1.953125,-34.1796875,-39.55078125,36.1328125
0.97265625,-147.94921875,-35.64453125,-41.9921875,-226.5625
0.9765625,-123.046875,-45.41015625,-44.921875,-147.94921875
0.98046875,26.3671875,-47.36328125,-44.921875,131.8359375
0.984375,45.41015625,-41.50390625,-44.921875,116.69921875
0.98828125,-91.30859375,-41.015625,-46.875,-159.1796875
0.9921875,-131.34765625,-38.0859375,-48.33984375,-191.89453125
0.99609375,20.5078125,-32.71484375,-41.9921875,88.8671875
1.0,89.35546875,-31.73828125,-36.62109375,167.96875
1.00390625,-43.9453125,-31.73828125,-32.2265625,-90.33203125
1.0078125,-127.44140625,-34.66796875,-34.66796875,-217.7734375
1.01171875,-29.78515625,-36.1328125,-41.015625,-12.6953125
1.015625,74.21875,-41.9921875,-42.96875,154.78515625
1.01953125,-20.99609375,-46.875,-43.45703125,-38.57421875
1.0234375,-150.390625,-41.015625,-37.59765625,-252.44140625
1.02734375,-76.171875,-41.015625,-38.0859375,-96.6796875
1.03125,74.21875,-43.9453125,-34.66796875,160.64453125
1.03515625,12.6953125,-41.50390625,-37.109375,28.3203125
1.0390625,-131.8359375,-37.59765625,-38.57421875,-223.6328125
1.04296875,-97.16796875,-36.1328125,-35.64453125,-142.08984375
1.046875,49.8046875,-35.15625,-40.52734375,120.60546875
1.05078125,73.2421875,-32.71484375,-40.0390625,121.58203125
1.0546875,-91.30859375,-35.15625,-43.45703125,-168.9453125
1.05859375,-149.90234375,-36.1328125,-46.38671875,-224.12109375
1.0625,-8.30078125,-31.73828125,-39.0625,46.875
1.06640625,64.94140625,-31.25,-40.0390625,152.83203125
1.0703125,-65.91796875,-33.203125,-45.8984375,-103.515625
1.07421875,-160.15625,-36.1328125,-44.921875,-254.8828125
1.078125,-39.0625,-35.64453125,-41.50390625,-22.94921875
1.08203125,79.58984375,-39.0625,-42.48046875,182.12890625
1.0859375,-9.27734375,-41.015625,-46.38671875,-0.48828125
1.08984375,-123.046875,-36.62109375,-41.9921875,-222.16796875
1.09375,-64.94140625,-37.109375,-38.0859375,-84.47265625
1.09765625,71.2890625,-39.0625,-45.41015625,171.38671875
1.1015625,32.2265625,-39.55078125,-47.8515625,71.77734375
1.10546875,-126.953125,-35.15625,-44.921875,-217.7734375
1.109375,-120.1171875,-34.1796875,-43.9453125,-171.38671875
1.11328125,22.4609375,-34.66796875,-41.50390625,109.375
1.1171875,42.96875,-37.59765625,-46.38671875,120.1171875
1.12109375,-99.609375,-43.9453125,-46.38671875,-158.69140625
1.125,-131.34765625,-39.55078125,-35.15625,-209.47265625
1.12890625,0.48828125,-34.1796875,-31.73828125,57.6171875
1.1328125,80.56640625,-37.109375,-36.1328125,179.19921875
1.13671875,-50.78125,-41.9921875,-41.015625,-61.5234375
1.140625,-156.73828125,-37.109375,-40.0390625,-229.4921875
1.14453125,-41.9921875,-37.109375,-34.1796875,-23.4375
1.1484375,68.84765625,-44.43359375,-34.66796875,164.0625
1.15234375,-12.6953125,-40.0390625,-37.109375,-6.8359375
1.15625,-144.04296875,-40.52734375,-37.109375,-240.234375
1.16015625,-105.95703125,-41.9921875,-37.59765625,-124.0234375
1.1640625,46.38671875,-41.50390625,-37.109375,163.57421875
1.16796875,36.1328125,-40.0390625,-37.59765625,103.515625
1.171875,-120.1171875,-39.0625,-33.203125,-197.265625
1.17578125,-134.765625,-42.48046875,-33.203125,-187.98828125
1.1796875,10.25390625,-40.0390625,-32.2265625,93.26171875
1.18359375,62.5,-40.0390625,-30.2734375,144.04296875
1.1875,-73.2421875,-39.55078125,-38.0859375,-119.62890625
1.19140625,-144.53125,-35.15625,-38.57421875,-226.5625
1.1953125,-36.1328125,-39.0625,-42.48046875,6.8359375
1.19921875,55.6640625,-41.50390625,-43.45703125,145.01953125
1.203125,-15.625,-34.66796875,-35.15625,-43.9453125
1.20703125,-137.20703125,-36.1328125,-36.62109375,-233.88671875
1.2109375,-58.10546875,-35.15625,-34.66796875,-58.59375
1.21484375,83.49609375,-36.1328125,-37.109375,178.7109375
1.21875,18.06640625,-38.0859375,-37.59765625,40.0390625
1.22265625,-106.93359375,-38.57421875,-36.1328125,-195.3125
1.2265625,-68.84765625,-38.0859375,-43.45703125,-101.5625
1.23046875,70.80078125,-33.203125,-42.48046875,154.78515625
1.234375,66.89453125,-29.78515625,-39.0625,108.3984375
1.23828125,-70.3125,-27.34375,-43.9453125,-163.0859375
1.2421875,-98.6328125,-30.76171875,-43.45703125,-181.15234375
1.24609375,16.6015625,-30.76171875,-39.55078125,84.47265625
1.25,78.61328125,-32.71484375,-40.0390625,162.59765625
1.25390625,-46.38671875,-36.62109375,-39.55078125,-104.00390625
1.2578125,-137.6953125,-39.55078125,-40.0390625,-223.14453125
1.26171875,-22.4609375,-34.66796875,-37.109375,17.578125
1.265625,93.26171875,-25.390625,-34.66796875,182.6171875
1.26953125,-16.6015625,-32.2265625,-41.015625,-48.828125
1.2734375,-149.4140625,-40.52734375,-38.57421875,-243.65234375
1.27734375,-64.94140625,-37.59765625,-33.203125,-56.15234375
1.28125,60.546875,-37.59765625,-36.62109375,163.0859375
1.28515625,8.7890625,-41.9921875,-38.0859375,41.9921875
1.2890625,-146.484375,-41.9921875,-40.0390625,-222.65625
1.29296875,-135.25390625,-38.57421875,-42.96875,-166.50390625
1.296875,16.11328125,-37.59765625,-41.015625,109.375
1.30078125,37.59765625,-38.57421875,-37.109375,110.3515625
1.3046875,-104.98046875,-37.109375,-38.57421875,-176.26953125
1.30859375,-145.01953125,-35.15625,-40.52734375,-232.91015625
1.3125,10.25390625,-34.1796875,-40.0390625,46.38671875
1.31640625,77.63671875,-35.64453125,-40.0390625,145.5078125
1.3203125,-64.453125,-40.52734375,-41.015625,-107.421875
1.32421875,-153.3203125,-37.59765625,-38.57421875,-238.76953125
1.328125,-45.41015625,-34.1796875,-41.015625,-20.01953125
1.33203125,71.2890625,-38.0859375,-45.41015625,158.69140625
1.3359375,-32.2265625,-41.50390625,-47.36328125,-29.296875
1.33984375,-161.1328125,-39.55078125,-46.875,-253.90625
1.34375,-78.125,-35.15625,-38.57421875,-105.95703125
1.34765625,58.59375,-34.66796875,-39.55078125,138.671875
1.3515625,24.90234375,-34.66796875,-42.48046875,44.43359375
1.35546875,-133.30078125,-40.52734375,-40.52734375,-229.98046875
1.359375,-128.41796875,-41.9921875,-43.9453125,-189.94140625
1.36328125,30.2734375,-40.0390625,-44.921875,107.91015625
1.3671875,48.33984375,-39.55078125,-43.45703125,127.44140625
1.37109375,-91.796875,-39.55078125,-41.9921875,-149.4140625
1.375,-144.53125,-40.52734375,-38.0859375,-221.6796875
1.37890625,-7.8125,-38.57421875,-38.0859375,44.43359375
1.3828125,75.68359375,-38.57421875,-42.96875,160.64453125
1.38671875,-63.4765625,-41.015625,-41.015625,-109.86328125
1.390625,-148.4375,-39.0625,-35.15625,-263.671875
1.39453125,-49.8046875,-39.0625,-36.1328125,-49.31640625
1.3984375,69.3359375,-36.1328125,-36.1328125,151.85546875
1.40234375,-7.8125,-33.69140625,-33.203125,-11.23046875
1.40625,-149.90234375,-35.15625,-37.109375,-249.0234375
1.41015625,-93.26171875,-31.73828125,-41.015625,-122.0703125
1.4140625,43.45703125,-34.1796875,-37.109375,136.71875
1.41796875,11.23046875,-33.203125,-33.69140625,66.40625
1.421875,-145.5078125,-30.2734375,-38.0859375,-215.8203125
1.42578125,-138.671875,-29.296875,-38.57421875,-192.87109375
1.4296875,12.6953125,-30.2734375,-31.73828125,96.6796875
1.43359375,29.78515625,-34.66796875,-32.2265625,125.48828125
1.4375,-114.2578125,-37.59765625,-32.2265625,-152.83203125
1.44140625,-149.4140625,-34.66796875,-34.1796875,-232.421875
1.4453125,-20.5078125,-33.203125,-40.52734375,25.87890625
1.44921875,73.73046875,-31.73828125,-40.0390625,166.015625
1.453125,-18.5546875,-28.3203125,-36.62109375,-60.05859375
1.45703125,-127.9296875,-33.69140625,-38.57421875,-241.69921875
1.4609375,-52.24609375,-35.64453125,-44.43359375,-53.7109375
1.46484375,80.078125,-28.3203125,-44.43359375,166.9921875
1.46875,22.4609375,-30.76171875,-47.36328125,24.4140625
1.47265625,-124.51171875,-30.2734375,-48.828125,-235.83984375
1.4765625,-101.07421875,-32.2265625,-52.734375,-160.15625
1.48046875,49.8046875,-33.69140625,-50.29296875,116.69921875
1.484375,63.4765625,-28.3203125,-43.9453125,92.28515625
1.48828125,-89.84375,-28.3203125,-46.875,-193.359375
1.4921875,-124.0234375,-30.76171875,-47.36328125,-217.28515625
1.49609375,10.7421875,-29.296875,-45.8984375,57.6171875
1.5,72.75390625,-23.92578125,-39.0625,134.27734375
1.50390625,-69.3359375,-26.85546875,-38.57421875,-121.58203125
1.5078125,-154.78515625,-31.25,-44.43359375,-234.86328125
1.51171875,-32.71484375,-35.15625,-42.96875,-0.48828125
1.515625,72.75390625,-34.66796875,-40.52734375,160.64453125
1.51953125,-41.015625,-33.203125,-40.52734375,-44.921875
1.5234375,-173.33984375,-39.0625,-40.0390625,-254.39453125
1.52734375,-100.5859375,-37.59765625,-39.55078125,-92.7734375
1.53125,63.4765625,-29.296875,-37.59765625,160.64453125
1.53515625,15.625,-34.1796875,-40.52734375,38.57421875
1.5390625,-149.4140625,-40.0390625,-41.015625,-241.69921875
1.54296875,-116.2109375,-32.2265625,-37.109375,-168.45703125
1.546875,38.57421875,-35.64453125,-43.45703125,123.046875
1.55078125,41.9921875,-41.015625,-44.43359375,104.4921875
1.5546875,-112.3046875,-40.52734375,-41.015625,-192.3828125
1.55859375,-127.9296875,-39.55078125,-38.57421875,-208.984375
1.5625,37.59765625,-36.1328125,-35.64453125,103.515625
1.56640625,95.703125,-37.109375,-41.015625,195.3125
1.5703125,-60.05859375,-35.64453125,-40.52734375,-88.37890625
1.57421875,-156.73828125,-35.64453125,-45.41015625,-240.72265625
1.578125,-39.0625,-40.0390625,-48.828125,-9.27734375
1.58203125,79.1015625,-36.1328125,-41.9921875,168.9453125
1.5859375,-12.20703125,-31.25,-40.52734375,-20.99609375
1.58984375,-147.4609375,-35.15625,-42.96875,-249.51171875
1.59375,-84.47265625,-39.55078125,-47.36328125,-110.3515625
1.59765625,54.19921875,-35.15625,-50.29296875,144.04296875
1.6015625,16.11328125,-35.64453125,-49.8046875,49.31640625
1.60546875,-126.953125,-39.0625,-43.9453125,-211.9140625
1.609375,-114.2578125,-37.59765625,-41.50390625,-160.64453125
1.61328125,58.10546875,-35.15625,-38.57421875,125.0
1.6171875,66.40625,-37.59765625,-37.59765625,129.39453125
1.62109375,-101.5625,-42.48046875,-42.96875,-162.59765625
1.625,-137.6953125,-39.55078125,-40.52734375,-217.28515625
1.62890625,4.8828125,-33.69140625,-32.71484375,61.5234375
1.6328125,85.9375,-32.71484375,-34.1796875,180.6640625
1.63671875,-44.921875,-33.203125,-38.0859375,-73.2421875
1.640625,-153.80859375,-32.71484375,-35.64453125,-236.328125
1.64453125,-50.29296875,-33.203125,-32.71484375,-0.48828125
1.6484375,62.98828125,-38.0859375,-33.69140625,204.58984375
1.65234375,-16.11328125,-36.62109375,-31.73828125,23.92578125
1.65625,-169.43359375,-38.57421875,-34.66796875,-227.5390625
1.66015625,-107.91015625,-39.55078125,-35.64453125,-108.3984375
1.6640625,51.26953125,-39.55078125,-34.1796875,157.2265625
1.66796875,1.46484375,-41.50390625,-40.0390625,64.453125
1.671875,-138.18359375,-36.1328125,-37.109375,-206.54296875
1.67578125,-136.71875,-41.015625,-35.15625,-174.8046875
1.6796875,-1.46484375,-47.8515625,-37.109375,99.12109375
1.68359375,32.71484375,-41.9921875,-33.203125,121.09375
1.6875,-101.07421875,-34.1796875,-30.76171875,-142.08984375
1.69140625,-160.64453125,-37.59765625,-35.64453125,-214.84375
1.6953125,-34.66796875,-39.0625,-40.0390625,34.66796875
1.69921875,49.31640625,-36.1328125,-41.9921875,162.109375
1.703125,-58.10546875,-35.15625,-42.48046875,-67.3828125
1.70703125,-139.6484375,-31.73828125,-41.015625,-235.3515625
1.7109375,-49.8046875,-36.62109375,-44.921875,-41.015625
1.71484375,64.453125,-38.57421875,-46.875,163.0859375
1.71875,2.44140625,-36.1328125,-41.9921875,10.7421875
1.72265625,-132.32421875,-37.59765625,-40.0390625,-232.91015625
1.7265625,-83.49609375,-34.1796875,-38.0859375,-124.0234375
1.73046875,76.66015625,-29.78515625,-38.0859375,155.76171875
1.734375,61.5234375,-32.2265625,-39.0625,100.09765625
1.73828125,-104.00390625,-36.1328125,-43.9453125,-196.77734375
1.7421875,-117.1875,-39.0625,-44.43359375,-190.4296875
1.74609375,33.203125,-38.0859375,-41.9921875,99.609375
1.75,71.77734375,-36.1328125,-43.45703125,138.671875
1.75390625,-70.3125,-37.59765625,-42.48046875,-127.9296875
1.7578125,-146.484375,-38.0859375,-41.50390625,-244.140625
1.76171875,-33.203125,-37.59765625,-40.52734375,-14.6484375
1.765625,81.54296875,-33.203125,-33.203125,162.109375
1.76953125,-23.92578125,-32.71484375,-30.76171875,-48.828125
1.7734375,-159.1796875,-37.109375,-36.62109375,-260.7421875
1.77734375,-72.75390625,-35.64453125,-32.2265625,-77.63671875
1.78125,70.80078125,-34.1796875,-28.3203125,163.57421875
1.78515625,12.20703125,-28.80859375,-30.76171875,35.64453125
1.7890625,-131.8359375,-31.25,-35.64453125,-228.02734375
1.79296875,-114.2578125,-36.62109375,-41.9921875,-164.0625
1.796875,52.24609375,-31.25,-38.57421875,125.48828125
1.80078125,70.80078125,-30.2734375,-35.15625,113.28125
1.8046875,-95.21484375,-30.2734375,-45.41015625,-173.33984375
1.80859375,-131.8359375,-30.2734375,-50.29296875,-210.44921875
1.8125,10.7421875,-26.85546875,-47.8515625,50.78125
1.81640625,60.546875,-25.390625,-46.875,132.32421875
1.8203125,-74.21875,-33.69140625,-50.78125,-128.41796875
1.82421875,-143.5546875,-34.66796875,-54.19921875,-256.34765625
1.828125,-22.4609375,-32.2265625,-44.921875,-10.7421875
1.83203125,84.9609375,-32.2265625,-35.64453125,171.38671875
1.8359375,-20.5078125,-34.1796875,-44.43359375,-39.0625
1.83984375,-131.8359375,-34.1796875,-46.38671875,-249.0234375
1.84375,-53.7109375,-28.80859375,-41.9921875,-75.1953125
1.84765625,74.70703125,-33.203125,-47.36328125,161.62109375
1.8515625,29.78515625,-34.66796875,-44.921875,40.0390625
1.85546875,-127.44140625,-33.203125,-38.57421875,-229.00390625
1.859375,-107.421875,-40.52734375,-40.0390625,-161.62109375
1.86328125,48.828125,-35.15625,-38.0859375,120.1171875
1.8671875,66.89453125,-34.66796875,-40.52734375,115.72265625
1.87109375,-82.03125,-41.50390625,-44.43359375,-165.0390625
1.875,-137.6953125,-39.55078125,-42.48046875,-222.16796875
1.87890625,-7.32421875,-38.0859375,-41.015625,46.875
1.8828125,66.40625,-34.1796875,-41.50390625,156.25
1.88671875,-66.89453125,-33.69140625,-41.015625,-96.6796875
1.890625,-161.1328125,-33.203125,-42.96875,-249.0234375
1.89453125,-44.921875,-31.25,-46.38671875,-22.94921875
1.8984375,83.0078125,-31.25,-45.41015625,182.12890625
1.90234375,-12.6953125,-37.59765625,-50.78125,-14.6484375
1.90625,-163.57421875,-36.62109375,-52.24609375,-263.671875
1.91015625,-98.6328125,-31.25,-53.22265625,-124.0234375
1.9140625,55.17578125,-35.15625,-51.26953125,130.859375
1.91796875,32.2265625,-32.2265625,-47.36328125,59.08203125
1.921875,-107.91015625,-31.25,-49.8046875,-188.4765625
1.92578125,-111.328125,-34.66796875,-50.29296875,-156.73828125
1.9296875,32.71484375,-35.15625,-46.38671875,116.69921875
1.93359375,78.61328125,-34.1796875,-47.8515625,151.3671875
1.9375,-53.7109375,-36.1328125,-55.17578125,-118.1640625
1.94140625,-123.046875,-40.0390625,-56.15234375,-207.51953125
1.9453125,5.859375,-39.0625,-49.8046875,48.33984375
1.94921875,84.9609375,-37.109375,-49.31640625,180.17578125
1.953125,-37.59765625,-39.55078125,-43.9453125,-54.6875
1.95703125,-139.6484375,-44.921875,-40.52734375,-224.609375
1.9609375,-40.0390625,-43.45703125,-41.015625,-18.06640625
1.96484375,93.75,-38.0859375,-39.55078125,204.58984375
1.96875,26.85546875,-38.0859375,-40.52734375,49.8046875
1.97265625,-119.62890625,-40.0390625,-38.57421875,-210.9375
1.9765625,-85.44921875,-42.96875,-39.0625,-113.76953125
1.98046875,62.5,-41.9921875,-41.015625,155.2734375
1.984375,61.5234375,-40.0390625,-37.109375,108.3984375
1.98828125,-94.23828125,-41.015625,-39.55078125,-175.29296875
1.9921875,-131.8359375,-42.96875,-43.9453125,-186.5234375
1.99609375,13.18359375,-41.50390625,-38.0859375,85.44921875
2.0,70.80078125,-37.109375,-35.64453125,147.4609375
2.00390625,-70.80078125,-38.0859375,-37.59765625,-119.62890625
2.0078125,-155.76171875,-38.57421875,-35.64453125,-236.81640625
2.01171875,-26.85546875,-34.66796875,-40.0390625,15.625
2.015625,85.9375,-35.64453125,-41.9921875,185.546875
2.01953125,-24.90234375,-37.109375,-41.50390625,-31.73828125
2.0234375,-148.4375,-38.57421875,-44.43359375,-236.328125
2.02734375,-63.96484375,-43.9453125,-44.43359375,-55.6640625
2.03125,68.359375,-42.48046875,-41.50390625,170.41015625
2.03515625,6.8359375,-35.15625,-38.0859375,30.76171875
2.0390625,-137.20703125,-32.2265625,-39.0625,-234.375
2.04296875,-115.72265625,-34.1796875,-41.50390625,-161.1328125
2.046875,30.2734375,-36.62109375,-43.45703125,121.09375
2.05078125,42.96875,-34.1796875,-43.45703125,98.6328125
2.0546875,-115.72265625,-37.59765625,-43.45703125,-197.265625
2.05859375,-154.296875,-40.0390625,-41.50390625,-230.46875
2.0625,-6.34765625,-35.15625,-34.66796875,49.8046875
2.06640625,52.734375,-37.109375,-35.64453125,118.1640625
2.0703125,-67.3828125,-39.55078125,-41.015625,-125.48828125
2.07421875,-130.37109375,-37.59765625,-34.66796875,-228.515625
2.078125,-32.2265625,-40.52734375,-34.66796875,-9.765625
2.08203125,71.2890625,-41.50390625,-38.0859375,172.8515625
2.0859375,-19.04296875,-40.52734375,-39.0625,-21.484375
2.08984375,-153.80859375,-36.1328125,-38.57421875,-252.44140625
2.09375,-66.89453125,-34.66796875,-40.0390625,-88.8671875
2.09765625,75.68359375,-38.0859375,-40.0390625,170.8984375
2.1015625,13.671875,-41.50390625,-38.0859375,48.33984375
2.10546875,-137.20703125,-41.9921875,-40.0390625,-229.4921875
2.109375,-119.140625,-37.59765625,-32.71484375,-167.48046875
2.11328125,33.69140625,-37.59765625,-28.3203125,118.1640625
2.1171875,44.43359375,-38.0859375,-33.203125,111.328125
2.12109375,-93.26171875,-35.15625,-34.1796875,-156.73828125
2.125,-128.90625,-34.66796875,-37.59765625,-191.89453125
2.12890625,5.37109375,-32.71484375,-33.203125,69.3359375
2.1328125,90.33203125,-32.2265625,-29.296875,168.45703125
2.13671875,-59.08203125,-39.55078125,-32.71484375,-91.796875
2.140625,-145.99609375,-38.0859375,-32.2265625,-239.74609375
2.14453125,-24.4140625,-34.66796875,-35.15625,-8.7890625
2.1484375,93.26171875,-34.1796875,-38.57421875,195.3125
2.15234375,-1.953125,-33.69140625,-38.57421875,-7.8125
2.15625,-142.578125,-34.66796875,-35.15625,-240.72265625
2.16015625,-67.87109375,-36.62109375,-27.34375,-77.63671875
2.1640625,81.0546875,-36.1328125,-26.85546875,175.29296875
2.16796875,46.38671875,-31.73828125,-31.73828125,68.84765625
2.171875,-116.2109375,-30.76171875,-31.25,-213.8671875
2.17578125,-111.81640625,-34.1796875,-38.0859375,-169.921875
2.1796875,41.9921875,-38.0859375,-41.9921875,121.58203125
2.18359375,55.6640625,-37.59765625,-34.1796875,130.859375
2.1875,-96.19140625,-37.109375,-39.0625,-163.0859375
2.19140625,-152.34375,-34.66796875,-41.9921875,-236.81640625
2.1953125,-28.80859375,-35.15625,-43.9453125,32.2265625
2.19921875,59.5703125,-38.0859375,-44.921875,162.59765625
2.203125,-34.66796875,-38.57421875,-44.921875,-68.84765625
2.20703125,-128.90625,-39.55078125,-47.36328125,-239.2578125
2.2109375,-43.45703125,-38.57421875,-44.43359375,-38.57421875
2.21484375,81.54296875,-37.59765625,-41.50390625,165.52734375
2.21875,30.76171875,-36.62109375,-44.921875,23.92578125
2.22265625,-120.1171875,-42.48046875,-49.31640625,-207.51953125
2.2265625,-84.9609375,-42.96875,-41.9921875,-102.05078125
2.23046875,70.80078125,-38.0859375,-34.1796875,155.2734375
2.234375,48.828125,-37.109375,-40.0390625,81.54296875
2.23828125,-108.3984375,-41.015625,-46.875,-204.1015625
2.2421875,-117.1875,-41.015625,-45.41015625,-187.01171875
2.24609375,29.296875,-37.109375,-39.55078125,101.5625
2.25,77.63671875,-34.66796875,-36.1328125,149.90234375
2.25390625,-63.4765625,-32.2265625,-35.64453125,-114.2578125
2.2578125,-142.578125,-32.2265625,-31.25,-217.7734375
2.26171875,-31.73828125,-33.203125,-31.25,13.671875
2.265625,67.3828125,-35.64453125,-38.0859375,164.0625
2.26953125,-33.203125,-38.57421875,-37.59765625,-49.8046875
2.2734375,-150.87890625,-39.0625,-36.62109375,-245.1171875
2.27734375,-67.3828125,-39.55078125,-39.0625,-59.08203125
2.28125,71.2890625,-38.0859375,-36.62109375,180.6640625
2.28515625,11.23046875,-33.69140625,-35.15625,40.52734375
2.2890625,-142.08984375,-34.1796875,-36.62109375,-228.515625
2.29296875,-103.515625,-33.203125,-32.71484375,-139.6484375
2.296875,63.4765625,-29.296875,-26.3671875,154.78515625
2.30078125,59.5703125,-34.1796875,-26.85546875,116.69921875
2.3046875,-88.8671875,-36.62109375,-34.1796875,-181.15234375
2.30859375,-116.2109375,-33.203125,-41.50390625,-193.84765625
2.3125,30.2734375,-34.1796875,-41.50390625,99.609375
2.31640625,108.3984375,-35.15625,-35.15625,182.12890625
2.3203125,-25.87890625,-36.62109375,-37.109375,-69.82421875
2.32421875,-124.0234375,-37.109375,-42.48046875,-197.265625
2.328125,-2.9296875,-36.62109375,-43.45703125,25.390625
2.33203125,102.5390625,-35.64453125,-42.96875,180.6640625
2.3359375,12.6953125,-37.109375,-44.43359375,-19.53125
2.33984375,-118.65234375,-38.0859375,-41.50390625,-226.07421875
2.34375,-44.43359375,-33.69140625,-36.1328125,-54.6875
2.34765625,95.703125,-35.15625,-39.55078125,186.5234375
2.3515625,36.1328125,-37.59765625,-40.52734375,62.98828125
2.35546875,-106.4453125,-34.66796875,-41.015625,-195.80078125
2.359375,-91.30859375,-35.15625,-46.38671875,-133.7890625
2.36328125,70.80078125,-36.62109375,-44.43359375,161.62109375
2.3671875,84.47265625,-36.1328125,-44.921875,153.80859375
2.37109375,-90.8203125,-39.55078125,-47.36328125,-159.1796875
2.375,-129.8828125,-39.0625,-48.828125,-195.80078125
2.37890625,40.0390625,-37.59765625,-43.9453125,107.421875
2.3828125,127.9296875,-38.57421875,-36.62109375,201.66015625
2.38671875,0.0,-34.1796875,-33.69140625,-51.26953125
2.390625,-82.51953125,-33.69140625,-32.71484375,-184.08203125
2.39453125,31.25,-38.0859375,-32.71484375,51.26953125
2.3984375,142.08984375,-38.57421875,-31.25,245.1171875
2.40234375,67.87109375,-32.71484375,-29.296875,66.89453125
2.40625,-50.29296875,-34.1796875,-28.80859375,-141.11328125
2.41015625,16.6015625,-32.71484375,-33.203125,5.37109375
2.4140625,172.8515625,-27.83203125,-35.15625,258.7890625
2.41796875,132.32421875,-31.73828125,-30.76171875,152.83203125
2.421875,-7.8125,-32.71484375,-27.83203125,-109.375
2.42578125,18.06640625,-29.296875,-30.2734375,-41.50390625
2.4296875,162.59765625,-29.296875,-26.3671875,245.60546875
2.43359375,189.94140625,-34.66796875,-28.3203125,261.71875
2.4375,43.45703125,-36.62109375,-33.203125,-14.6484375
2.44140625,-19.53125,-30.2734375,-36.62109375,-88.8671875
2.4453125,116.2109375,-27.83203125,-42.48046875,177.24609375
2.44921875,200.68359375,-25.87890625,-38.0859375,293.45703125
2.453125,76.66015625,-31.73828125,-33.203125,49.31640625
2.45703125,-24.4140625,-34.1796875,-39.55078125,-111.81640625
2.4609375,70.80078125,-30.2734375,-42.96875,96.6796875
2.46484375,166.9921875,-34.66796875,-41.015625,282.71484375
2.46875,91.30859375,-31.25,-39.55078125,109.375
2.47265625,-50.29296875,-27.34375,-39.55078125,-141.6015625
2.4765625,-17.08984375,-35.15625,-44.921875,-34.1796875
2.48046875,149.90234375,-38.0859375,-46.875,238.76953125
2.484375,138.18359375,-35.64453125,-44.921875,160.64453125
2.48828125,-31.73828125,-34.1796875,-41.9921875,-129.39453125
2.4921875,-43.45703125,-32.2265625,-32.71484375,-110.83984375
2.49609375,119.140625,-33.203125,-30.2734375,188.4765625
2.5,166.015625,-36.62109375,-34.66796875,236.328125
2.50390625,18.06640625,-38.0859375,-33.69140625,-31.73828125
2.5078125,-49.31640625,-38.0859375,-34.66796875,-111.81640625
2.51171875,74.21875,-32.2265625,-30.2734375,134.27734375
2.515625,155.2734375,-31.25,-24.4140625,265.13671875
2.51953125,32.2265625,-37.109375,-27.34375,38.57421875
2.5234375,-77.63671875,-34.1796875,-28.3203125,-144.04296875
2.52734375,12.20703125,-30.76171875,-25.87890625,43.9453125
2.53125,155.2734375,-31.73828125,-29.296875,267.578125
2.53515625,85.44921875,-33.203125,-28.80859375,115.234375
2.5390625,-71.77734375,-35.15625,-31.73828125,-155.76171875
2.54296875,-32.2265625,-37.59765625,-30.76171875,-67.87109375
2.546875,114.74609375,-39.0625,-31.25,210.44921875
2.55078125,129.8828125,-30.76171875,-32.2265625,177.24609375
2.5546875,-13.671875,-27.83203125,-27.34375,-99.609375
2.55859375,-55.6640625,-31.73828125,-26.85546875,-116.2109375
2.5625,103.02734375,-27.34375,-28.80859375,167.48046875
2.56640625,151.85546875,-28.80859375,-27.83203125,216.30859375
2.5703125,6.8359375,-35.64453125,-31.25,-52.734375
2.57421875,-65.91796875,-39.0625,-35.15625,-161.1328125
2.578125,52.734375,-34.1796875,-31.73828125,78.61328125
2.58203125,160.15625,-32.2265625,-29.78515625,248.53515625
2.5859375,49.31640625,-32.71484375,-34.66796875,32.2265625
2.58984375,-70.80078125,-30.76171875,-37.59765625,-169.43359375
2.59375,20.5078125,-32.71484375,-33.69140625,16.6015625
2.59765625,146.97265625,-34.1796875,-37.109375,244.62890625
2.6015625,78.125,-35.15625,-34.1796875,110.3515625
2.60546875,-84.9609375,-40.0390625,-34.66796875,-164.0625
2.609375,-60.05859375,-38.0859375,-36.62109375,-93.26171875
2.61328125,93.26171875,-38.0859375,-35.15625,185.546875
2.6171875,87.40234375,-41.015625,-34.66796875,145.99609375
2.62109375,-62.5,-40.52734375,-30.2734375,-138.671875
2.625,-73.73046875,-33.203125,-28.3203125,-156.73828125
2.62890625,53.7109375,-34.1796875,-26.85546875,117.67578125
2.6328125,93.75,-44.43359375,-34.1796875,197.265625
2.63671875,-29.78515625,-41.9921875,-36.1328125,-61.5234375
2.640625,-108.88671875,-37.109375,-31.73828125,-198.2421875
2.64453125,3.41796875,-37.109375,-30.76171875,35.15625
2.6484375,95.21484375,-41.015625,-30.2734375,202.63671875
2.65234375,4.8828125,-38.0859375,-27.34375,-5.859375
2.65625,-115.72265625,-38.57421875,-30.2734375,-220.21484375
2.66015625,-61.5234375,-42.96875,-37.109375,-67.87109375
2.6640625,74.21875,-39.0625,-40.0390625,179.19921875
2.66796875,38.0859375,-36.62109375,-39.0625,71.77734375
2.671875,-102.05078125,-36.1328125,-31.73828125,-188.96484375
2.67578125,-77.1484375,-34.1796875,-36.1328125,-126.46484375
2.6796875,71.2890625,-34.1796875,-41.50390625,164.55078125
2.68359375,82.51953125,-33.203125,-38.0859375,169.921875
2.6875,-50.78125,-30.76171875,-37.109375,-109.375
2.69140625,-95.21484375,-30.76171875,-33.69140625,-169.921875
2.6953125,27.83203125,-30.2734375,-32.2265625,83.49609375
2.69921875,92.7734375,-32.2265625,-39.0625,185.546875
2.703125,-14.6484375,-30.76171875,-34.66796875,-46.38671875
2.70703125,-106.4453125,-35.64453125,-35.15625,-206.0546875
2.7109375,-16.11328125,-39.0625,-41.015625,-5.37109375
2.71484375,107.91015625,-38.57421875,-41.9921875,197.265625
2.71875,20.01953125,-39.0625,-40.52734375,18.06640625
2.72265625,-128.90625,-35.64453125,-37.109375,-223.6328125
2.7265625,-63.96484375,-33.69140625,-36.62109375,-90.33203125
2.73046875,86.9140625,-36.62109375,-35.15625,172.36328125
2.734375,53.22265625,-37.109375,-33.203125,96.19140625
2.73828125,-104.98046875,-34.66796875,-35.15625,-187.01171875
2.7421875,-108.88671875,-39.0625,-41.015625,-172.8515625
2.74609375,32.2265625,-42.48046875,-45.41015625,105.95703125
2.75,55.6640625,-40.52734375,-42.96875,127.44140625
2.75390625,-86.9140625,-40.52734375,-37.109375,-158.203125
2.7578125,-131.34765625,-40.0390625,-34.66796875,-231.93359375
2.76171875,18.06640625,-33.203125,-38.57421875,51.7578125
2.765625,104.98046875,-31.73828125,-44.43359375,181.640625
2.76953125,-24.90234375,-40.52734375,-43.45703125,-63.96484375
2.7734375,-120.60546875,-41.50390625,-33.69140625,-229.00390625
2.77734375,0.48828125,-35.15625,-28.80859375,-1.953125
2.78125,141.11328125,-35.64453125,-28.80859375,243.65234375
2.78515625,85.44921875,-41.015625,-20.99609375,106.93359375
2.7890625,-59.08203125,-46.38671875,-23.92578125,-145.99609375
2.79296875,-37.59765625,-45.41015625,-28.80859375,-57.12890625
2.796875,134.27734375,-35.64453125,-20.99609375,227.5390625
2.80078125,130.859375,-34.1796875,-20.5078125,186.03515625
2.8046875,-43.45703125,-37.59765625,-26.3671875,-108.3984375
2.80859375,-72.75390625,-35.15625,-25.87890625,-129.39453125
2.8125,69.82421875,-32.2265625,-22.4609375,145.01953125
2.81640625,123.046875,-32.71484375,-18.06640625,205.56640625
2.8203125,-15.625,-36.1328125,-15.13671875,-58.59375
2.82421875,-101.07421875,-40.52734375,-22.94921875,-173.828125
2.828125,12.6953125,-42.48046875,-21.97265625,71.2890625
2.83203125,134.765625,-36.1328125,-17.08984375,237.3046875
2.8359375,12.6953125,-38.0859375,-27.83203125,11.71875
2.83984375,-133.7890625,-41.50390625,-28.3203125,-202.63671875
2.84375,-44.921875,-34.1796875,-23.4375,-30.76171875
2.84765625,89.84375,-33.69140625,-29.78515625,195.3125
2.8515625,31.73828125,-35.64453125,-35.64453125,63.96484375
2.85546875,-115.234375,-38.0859375,-34.66796875,-197.265625
2.859375,-71.2890625,-38.57421875,-27.83203125,-103.02734375
2.86328125,80.078125,-33.203125,-25.87890625,170.41015625
2.8671875,67.3828125,-33.69140625,-28.3203125,134.765625
2.87109375,-92.28515625,-41.50390625,-33.203125,-142.578125
2.875,-111.81640625,-44.921875,-35.15625,-150.87890625
2.87890625,32.71484375,-40.0390625,-32.71484375,122.0703125
2.8828125,82.03125,-36.1328125,-32.71484375,186.5234375
2.88671875,-51.7578125,-41.50390625,-40.0390625,-80.56640625
2.890625,-137.20703125,-39.55078125,-43.9453125,-216.30859375
2.89453125,-15.13671875,-33.203125,-38.57421875,27.34375
2.8984375,104.4921875,-35.15625,-38.57421875,200.68359375
2.90234375,5.37109375,-37.59765625,-37.109375,-5.859375
2.90625,-129.8828125,-34.66796875,-38.0859375,-218.75
2.91015625,-60.05859375,-32.2265625,-38.0859375,-58.10546875
2.9140625,90.8203125,-32.71484375,-35.64453125,192.3828125
2.91796875,39.55078125,-35.64453125,-38.57421875,75.1953125
2.921875,-111.328125,-38.0859375,-38.0859375,-186.03515625
2.92578125,-79.1015625,-33.203125,-32.2265625,-104.00390625
2.9296875,65.4296875,-32.71484375,-34.1796875,163.57421875
2.93359375,57.6171875,-34.1796875,-36.62109375,128.41796875
2.9375,-88.8671875,-35.15625,-38.57421875,-153.80859375
2.94140625,-130.37109375,-38.0859375,-44.43359375,-216.30859375
2.9453125,1.953125,-36.1328125,-45.8984375,47.8515625
2.94921875,78.61328125,-33.203125,-42.48046875,169.43359375
2.953125,-39.55078125,-28.80859375,-37.109375,-72.75390625
2.95703125,-130.859375,-32.71484375,-36.1328125,-229.4921875
2.9609375,-28.80859375,-35.15625,-38.57421875,-13.671875
2.96484375,91.30859375,-33.203125,-37.109375,201.171875
2.96875,3.90625,-38.0859375,-35.15625,27.34375
2.97265625,-142.578125,-41.9921875,-37.59765625,-224.609375
2.9765625,-83.49609375,-38.57421875,-38.57421875,-98.6328125
2.98046875,64.453125,-36.1328125,-34.1796875,157.2265625
2.984375,45.41015625,-40.52734375,-34.1796875,76.171875
2.98828125,-113.28125,-39.55078125,-37.109375,-197.265625
2.9921875,-129.8828125,-36.62109375,-41.50390625,-172.36328125
2.99609375,18.5546875,-41.50390625,-41.015625,108.88671875
3.0,46.875,-44.43359375,-37.109375,138.18359375
3.00390625,-96.6796875,-38.57421875,-32.2265625,-124.51171875
3.0078125,-156.25,-40.52734375,-34.66796875,-213.8671875
3.01171875,-33.69140625,-42.48046875,-29.296875,34.66796875
3.015625,62.98828125,-35.64453125,-25.87890625,174.31640625
3.01953125,-46.38671875,-33.203125,-34.66796875,-61.5234375
3.0234375,-161.1328125,-37.59765625,-34.1796875,-247.55859375
3.02734375,-67.3828125,-36.1328125,-32.2265625,-49.8046875
3.03125,64.453125,-34.1796875,-35.15625,166.015625
3.03515625,-5.859375,-34.1796875,-36.1328125,4.39453125
3.0390625,-152.83203125,-36.62109375,-41.50390625,-257.8125
3.04296875,-120.1171875,-38.57421875,-44.921875,-156.25
3.046875,57.6171875,-33.69140625,-40.0390625,144.04296875
3.05078125,49.8046875,-35.64453125,-38.57421875,90.33203125
3.0546875,-114.2578125,-37.109375,-42.48046875,-190.4296875
3.05859375,-118.65234375,-36.1328125,-45.41015625,-174.31640625
3.0625,33.69140625,-33.69140625,-41.9921875,101.5625
3.06640625,80.56640625,-32.71484375,-41.015625,146.484375
3.0703125,-71.2890625,-36.62109375,-48.828125,-132.32421875
3.07421875,-158.69140625,-35.64453125,-45.41015625,-247.55859375
3.078125,-15.13671875,-35.15625,-35.15625,29.296875
3.08203125,89.84375,-38.0859375,-37.59765625,187.5
3.0859375,-24.4140625,-35.64453125,-39.0625,-41.50390625
3.08984375,-133.30078125,-31.73828125,-35.15625,-220.703125
3.09375,-57.12890625,-30.2734375,-34.66796875,-40.52734375
3.09765625,70.80078125,-36.1328125,-35.64453125,178.22265625
3.1015625,6.8359375,-42.96875,-41.50390625,25.390625
3.10546875,-148.92578125,-47.36328125,-46.38671875,-242.67578125
3.109375,-94.7265625,-43.9453125,-35.64453125,-136.23046875
3.11328125,68.359375,-40.0390625,-28.3203125,148.92578125
3.1171875,48.33984375,-41.015625,-35.15625,104.00390625
3.12109375,-109.86328125,-40.0390625,-32.2265625,-185.546875
3.125,-132.8125,-40.0390625,-30.2734375,-211.9140625
3.12890625,4.39453125,-41.015625,-38.57421875,61.5234375
3.1328125,73.73046875,-40.0390625,-41.015625,143.06640625
3.13671875,-62.01171875,-40.0390625,-36.62109375,-126.953125
3.140625,-155.2734375,-42.48046875,-41.9921875,-261.71875
3.14453125,-27.34375,-42.48046875,-42.96875,-15.13671875
3.1484375,79.58984375,-41.9921875,-41.50390625,168.9453125
3.15234375,-31.25,-42.96875,-41.9921875,-32.2265625
3.15625,-137.20703125,-38.57421875,-40.0390625,-232.421875
3.16015625,-70.3125,-38.57421875,-44.921875,-71.2890625
3.1640625,50.78125,-39.55078125,-47.8515625,163.0859375
3.16796875,7.8125,-37.109375,-43.9453125,34.1796875
3.171875,-140.625,-38.57421875,-41.9921875,-241.69921875
3.17578125,-113.28125,-40.0390625,-44.43359375,-172.36328125
3.1796875,40.52734375,-40.52734375,-39.55078125,123.53515625
3.18359375,52.24609375,-39.55078125,-38.0859375,114.74609375
3.1875,-91.30859375,-33.69140625,-35.15625,-173.828125
3.19140625,-128.90625,-34.66796875,-35.15625,-210.44921875
3.1953125,20.99609375,-36.62109375,-35.64453125,77.1484375
3.19921875,88.8671875,-36.1328125,-29.78515625,173.828125
3.203125,-47.36328125,-41.015625,-29.78515625,-90.33203125
3.20703125,-138.671875,-40.52734375,-29.296875,-237.79296875
3.2109375,-23.4375,-37.109375,-28.80859375,-17.578125
3.21484375,84.47265625,-38.0859375,-30.76171875,156.25
3.21875,-7.32421875,-39.0625,-27.34375,-24.90234375
3.22265625,-109.375,-38.0859375,-29.296875,-230.46875
3.2265625,-34.1796875,-34.1796875,-26.3671875,-80.078125
3.23046875,64.94140625,-29.296875,-24.4140625,151.3671875
3.234375,1.46484375,-30.76171875,-28.3203125,36.62109375
3.23828125,-159.1796875,-37.109375,-28.80859375,-241.69921875
3.2421875,-165.0390625,-38.57421875,-29.296875,-209.9609375
3.24609375,-5.859375,-38.0859375,-32.2265625,81.54296875
3.25,24.4140625,-42.96875,-33.69140625,104.00390625
3.25390625,-114.2578125,-42.48046875,-37.109375,-172.8515625
3.2578125,-167.48046875,-42.96875,-44.43359375,-247.0703125
3.26171875,-42.96875,-42.48046875,-42.48046875,1.46484375
3.265625,60.05859375,-37.59765625,-39.0625,136.71875
3.26953125,-50.78125,-34.1796875,-39.55078125,-86.42578125
3.2734375,-163.0859375,-40.0390625,-39.55078125,-260.25390625
3.27734375,-84.47265625,-45.8984375,-39.0625,-83.49609375
3.28125,57.12890625,-39.55078125,-38.0859375,131.34765625
3.28515625,-10.25390625,-40.0390625,-41.9921875,-19.04296875
3.2890625,-156.73828125,-43.45703125,-39.0625,-257.8125
3.29296875,-97.65625,-42.48046875,-32.71484375,-133.30078125
3.296875,63.96484375,-40.0390625,-36.1328125,139.6484375
3.30078125,51.7578125,-37.109375,-39.55078125,87.890625
3.3046875,-114.74609375,-39.0625,-30.76171875,-203.125
3.30859375,-133.7890625,-43.45703125,-36.62109375,-206.0546875
3.3125,15.625,-44.921875,-44.43359375,88.37890625
3.31640625,49.31640625,-46.38671875,-43.45703125,131.34765625
3.3203125,-91.796875,-45.41015625,-43.45703125,-145.99609375
3.32421875,-150.390625,-45.41015625,-40.0390625,-242.67578125
3.328125,-15.625,-42.48046875,-35.15625,22.4609375
3.33203125,84.47265625,-43.45703125,-36.62109375,177.734375
3.3359375,-42.48046875,-43.9453125,-38.57421875,-53.7109375
3.33984375,-146.97265625,-35.64453125,-37.59765625,-231.93359375
3.34375,-58.10546875,-36.1328125,-34.66796875,-49.8046875
3.34765625,66.89453125,-35.15625,-29.78515625,169.43359375
3.3515625,11.71875,-36.62109375,-32.71484375,24.4140625
3.35546875,-147.4609375,-40.52734375,-34.1796875,-244.140625
3.359375,-116.69921875,-40.52734375,-32.71484375,-140.13671875
3.36328125,32.2265625,-41.015625,-29.78515625,145.5078125
3.3671875,22.94921875,-41.9921875,-36.62109375,89.84375
3.37109375,-121.09375,-39.55078125,-36.62109375,-199.21875
3.375,-144.04296875,-37.109375,-30.2734375,-212.40234375
3.37890625,-6.34765625,-37.59765625,-35.64453125,55.17578125
3.3828125,47.8515625,-36.1328125,-39.55078125,127.44140625
3.38671875,-93.75,-39.0625,-40.0390625,-133.30078125
3.390625,-152.34375,-38.57421875,-41.9921875,-236.328125
3.39453125,-18.5546875,-34.1796875,-40.52734375,10.25390625
3.3984375,66.40625,-36.62109375,-41.9921875,162.109375
3.40234375,-55.17578125,-38.57421875,-40.0390625,-62.5
3.40625,-161.1328125,-34.66796875,-33.69140625,-258.7890625
3.41015625,-71.2890625,-29.78515625,-34.66796875,-85.9375
3.4140625,59.5703125,-33.203125,-38.0859375,148.92578125
3.41796875,9.27734375,-32.2265625,-34.66796875,30.76171875
3.421875,-123.046875,-32.71484375,-33.203125,-214.84375
3.42578125,-96.6796875,-35.15625,-37.109375,-136.23046875
3.4296875,47.8515625,-32.71484375,-38.57421875,129.8828125
3.43359375,67.3828125,-34.1796875,-33.203125,116.2109375
3.4375,-91.30859375,-39.55078125,-34.66796875,-166.015625
3.44140625,-138.18359375,-41.50390625,-36.62109375,-212.890625
3.4453125,19.04296875,-40.52734375,-35.15625,78.61328125
3.44921875,76.171875,-36.62109375,-35.64453125,176.7578125
3.453125,-73.2421875,-34.1796875,-34.66796875,-98.14453125
3.45703125,-163.57421875,-36.62109375,-36.62109375,-247.55859375
3.4609375,-50.29296875,-38.0859375,-37.59765625,-16.6015625
3.46484375,62.98828125,-40.0390625,-35.64453125,174.8046875
3.46875,-6.8359375,-39.55078125,-36.1328125,-0.9765625
3.47265625,-127.44140625,-36.62109375,-33.69140625,-229.98046875
3.4765625,-100.5859375,-37.59765625,-34.66796875,-121.58203125
3.48046875,34.1796875,-35.64453125,-36.1328125,123.53515625
3.484375,20.5078125,-37.109375,-36.62109375,44.43359375
3.48828125,-112.79296875,-37.109375,-34.66796875,-219.7265625
3.4921875,-113.28125,-35.64453125,-33.203125,-184.08203125
3.49609375,17.08984375,-35.64453125,-34.66796875,91.796875
3.5,51.26953125,-35.15625,-40.0390625,114.74609375
3.50390625,-97.16796875,-36.1328125,-42.48046875,-164.0625
3.5078125,-156.73828125,-33.69140625,-42.48046875,-227.05078125
3.51171875,-18.5546875,-30.2734375,-38.0859375,35.64453125
3.515625,64.94140625,-31.73828125,-37.59765625,146.484375
3.51953125,-59.08203125,-36.1328125,-44.921875,-100.09765625
3.5234375,-172.36328125,-39.0625,-47.36328125,-261.23046875
3.52734375,-61.5234375,-37.59765625,-39.55078125,-43.9453125
3.53125,62.98828125,-30.2734375,-32.71484375,154.296875
3.53515625,-24.4140625,-30.2734375,-35.64453125,-26.3671875
3.5390625,-158.69140625,-38.0859375,-38.57421875,-259.27734375
3.54296875,-118.1640625,-40.52734375,-35.64453125,-137.6953125
3.546875,36.1328125,-44.43359375,-28.80859375,130.859375
3.55078125,24.4140625,-42.96875,-31.25,65.4296875
3.5546875,-142.08984375,-40.52734375,-40.0390625,-216.30859375
3.55859375,-155.76171875,-42.48046875,-42.48046875,-199.21875
3.5625,20.99609375,-37.59765625,-41.9921875,100.09765625
3.56640625,64.453125,-39.0625,-44.921875,130.859375
3.5703125,-90.8203125,-43.9453125,-45.8984375,-159.1796875
3.57421875,-146.97265625,-39.55078125,-39.55078125,-235.3515625
3.578125,-13.671875,-38.57421875,-34.66796875,26.85546875
3.58203125,75.68359375,-41.9921875,-33.69140625,166.50390625
3.5859375,-53.22265625,-41.015625,-34.66796875,-66.89453125
3.58984375,-171.875,-40.52734375,-34.1796875,-257.32421875
3.59375,-60.05859375,-38.57421875,-36.62109375,-57.6171875
3.59765625,81.0546875,-41.015625,-38.0859375,176.26953125
3.6015625,13.671875,-38.57421875,-35.15625,36.62109375
3.60546875,-130.859375,-36.1328125,-36.62109375,-217.7734375
3.609375,-99.609375,-39.55078125,-36.1328125,-125.0
3.61328125,48.828125,-36.62109375,-36.1328125,147.4609375
3.6171875,44.921875,-37.59765625,-36.1328125,96.6796875
3.62109375,-115.234375,-39.55078125,-38.0859375,-187.5
3.625,-140.625,-37.59765625,-40.52734375,-202.63671875
3.62890625,14.6484375,-34.66796875,-36.1328125,85.9375
3.6328125,64.94140625,-35.64453125,-33.69140625,143.5546875
3.63671875,-96.6796875,-39.55078125,-37.59765625,-146.484375
3.640625,-164.55078125,-36.62109375,-35.64453125,-246.58203125
3.64453125,-28.80859375,-31.73828125,-35.15625,0.48828125
3.6484375,74.21875,-35.15625,-33.203125,155.2734375
3.65234375,-34.66796875,-40.0390625,-33.203125,-51.7578125
3.65625,-154.78515625,-40.52734375,-34.1796875,-259.27734375
3.66015625,-70.3125,-41.015625,-32.71484375,-89.84375
3.6640625,62.98828125,-37.109375,-34.1796875,148.4375
3.66796875,9.765625,-37.59765625,-33.69140625,25.390625
3.671875,-126.953125,-38.57421875,-35.15625,-229.98046875
3.67578125,-88.8671875,-34.1796875,-34.66796875,-140.13671875
3.6796875,52.734375,-37.59765625,-36.62109375,145.99609375
3.68359375,44.921875,-41.50390625,-41.50390625,114.2578125
3.6875,-104.98046875,-39.55078125,-36.1328125,-169.921875
3.69140625,-123.046875,-36.1328125,-26.85546875,-187.98828125
3.6953125,12.6953125,-37.109375,-27.34375,76.171875
3.69921875,64.453125,-40.52734375,-29.78515625,148.92578125
3.703125,-52.734375,-39.0625,-30.2734375,-101.5625
3.70703125,-129.39453125,-36.1328125,-27.34375,-227.5390625
3.7109375,-20.5078125,-37.59765625,-26.85546875,0.0
3.71484375,97.16796875,-37.109375,-31.73828125,185.546875
3.71875,2.44140625,-33.69140625,-28.3203125,4.39453125
3.72265625,-128.41796875,-34.1796875,-29.296875,-220.703125
3.7265625,-62.01171875,-37.59765625,-35.64453125,-73.2421875
3.73046875,64.453125,-38.57421875,-32.2265625,159.1796875
3.734375,26.3671875,-35.15625,-32.71484375,43.9453125
3.73828125,-122.0703125,-36.62109375,-34.1796875,-218.75
3.7421875,-119.62890625,-39.55078125,-33.203125,-166.015625
3.74609375,18.5546875,-42.96875,-36.62109375,94.7265625
3.75,48.33984375,-41.015625,-38.0859375,100.5859375
3.75390625,-90.33203125,-40.0390625,-34.66796875,-169.921875
3.7578125,-139.16015625,-41.9921875,-36.62109375,-221.6796875
3.76171875,4.8828125,-41.50390625,-35.15625,58.59375
3.765625,95.703125,-39.55078125,-27.83203125,177.24609375
3.76953125,-30.76171875,-37.109375,-32.2265625,-57.6171875
3.7734375,-129.39453125,-37.109375,-37.109375,-216.30859375
3.77734375,-44.43359375,-38.57421875,-37.109375,-37.109375
3.78125,58.59375,-36.1328125,-35.64453125,144.53125
3.78515625,-1.46484375,-32.2265625,-33.69140625,-13.18359375
3.7890625,-121.58203125,-35.15625,-37.59765625,-224.12109375
3.79296875,-77.63671875,-36.62109375,-39.0625,-104.4921875
3.796875,69.82421875,-32.2265625,-34.66796875,149.90234375
3.80078125,40.52734375,-35.15625,-32.2265625,78.61328125
3.8046875,-130.37109375,-41.9921875,-39.0625,-205.078125
3.80859375,-127.44140625,-41.50390625,-38.0859375,-180.17578125
3.8125,43.45703125,-36.62109375,-31.25,123.046875
3.81640625,79.58984375,-35.64453125,-30.76171875,159.66796875
3.8203125,-72.75390625,-41.50390625,-33.203125,-141.6015625
3.82421875,-145.01953125,-44.921875,-31.25,-241.2109375
3.828125,-21.484375,-42.96875,-32.2265625,24.4140625
3.83203125,76.66015625,-40.0390625,-37.59765625,162.109375
3.8359375,-36.1328125,-42.48046875,-34.1796875,-67.3828125
3.83984375,-150.390625,-42.96875,-31.73828125,-243.1640625
3.84375,-62.01171875,-39.0625,-31.73828125,-39.0625
3.84765625,61.5234375,-40.52734375,-35.15625,172.8515625
3.8515625,-5.859375,-42.96875,-38.57421875,13.18359375
3.85546875,-144.04296875,-45.41015625,-39.0625,-230.95703125
3.859375,-111.328125,-47.36328125,-37.59765625,-140.13671875
3.86328125,42.96875,-42.48046875,-35.15625,127.44140625
3.8671875,36.62109375,-40.52734375,-40.52734375,84.9609375
3.87109375,-127.44140625,-41.50390625,-41.015625,-202.1484375
3.875,-133.30078125,-41.9921875,-35.15625,-193.359375
3.87890625,16.6015625,-40.52734375,-36.1328125,93.26171875
3.8828125,64.453125,-37.109375,-40.0390625,144.04296875
3.88671875,-76.171875,-42.48046875,-42.96875,-131.34765625
3.890625,-150.390625,-40.0390625,-41.015625,-228.515625
3.89453125,-28.80859375,-37.109375,-40.0390625,23.92578125
3.8984375,69.3359375,-39.55078125,-37.109375,161.1328125
3.90234375,-14.16015625,-35.64453125,-34.66796875,-50.78125
3.90625,-132.32421875,-36.62109375,-37.109375,-232.91015625
3.91015625,-65.4296875,-41.9921875,-38.57421875,-66.89453125
3.9140625,80.56640625,-40.0390625,-36.62109375,172.36328125
3.91796875,15.13671875,-41.015625,-33.203125,39.0625
3.921875,-143.5546875,-41.50390625,-32.71484375,-225.09765625
3.92578125,-119.140625,-40.0390625,-36.1328125,-145.01953125
3.9296875,37.109375,-40.0390625,-36.1328125,133.7890625
3.93359375,41.50390625,-41.015625,-37.59765625,105.46875
3.9375,-116.69921875,-40.0390625,-35.64453125,-185.546875
3.94140625,-149.4140625,-39.0625,-33.203125,-211.42578125
3.9453125,-1.46484375,-37.59765625,-33.69140625,67.87109375
3.94921875,61.5234375,-35.64453125,-36.1328125,145.01953125
3.953125,-65.91796875,-36.1328125,-35.64453125,-102.05078125
3.95703125,-150.390625,-41.015625,-40.0390625,-224.12109375
3.9609375,-51.7578125,-40.52734375,-49.31640625,-7.32421875
3.96484375,55.6640625,-38.0859375,-44.43359375,169.43359375
3.96875,-36.1328125,-42.96875,-37.109375,-28.80859375
3.97265625,-157.71484375,-40.52734375,-38.57421875,-240.234375
3.9765625,-72.75390625,-38.57421875,-39.55078125,-68.84765625
3.98046875,69.3359375,-40.0390625,-35.64453125,165.0390625
3.984375,16.11328125,-40.0390625,-36.62109375,43.9453125
3.98828125,-137.20703125,-41.015625,-34.66796875,-217.7734375
3.9921875,-109.375,-41.015625,-35.15625,-160.15625
3.99609375,55.17578125,-40.0390625,-34.66796875,132.8125
4.0,71.2890625,-38.0859375,-32.2265625,151.3671875
4.00390625,-95.703125,-40.52734375,-34.66796875,-139.6484375
4.0078125,-158.203125,-41.9921875,-33.203125,-201.171875
4.01171875,-30.2734375,-38.0859375,-30.2734375,57.6171875
4.015625,54.19921875,-39.0625,-32.71484375,154.296875
4.01953125,-63.4765625,-41.015625,-38.0859375,-85.44921875
4.0234375,-146.484375,-34.66796875,-33.69140625,-225.5859375
4.02734375,-46.38671875,-35.64453125,-33.69140625,-19.04296875
4.03125,65.4296875,-35.15625,-32.2265625,169.43359375
4.03515625,-20.99609375,-35.15625,-31.73828125,-7.32421875
4.0390625,-158.203125,-39.0625,-36.1328125,-237.79296875
4.04296875,-94.23828125,-39.0625,-32.2265625,-102.5390625
4.046875,48.828125,-40.52734375,-38.57421875,144.04296875
4.05078125,35.15625,-36.1328125,-39.55078125,70.3125
4.0546875,-111.328125,-39.0625,-35.64453125,-192.3828125
4.05859375,-138.18359375,-41.9921875,-40.0390625,-190.91796875
4.0625,14.6484375,-34.1796875,-39.0625,83.0078125
4.06640625,52.24609375,-34.66796875,-36.62109375,114.74609375
4.0703125,-96.19140625,-35.64453125,-35.64453125,-159.66796875
4.07421875,-148.92578125,-31.25,-35.15625,-227.05078125
4.078125,-24.4140625,-28.80859375,-28.3203125,34.66796875
4.08203125,61.03515625,-29.78515625,-30.2734375,156.25
4.0859375,-57.12890625,-36.1328125,-37.109375,-80.078125
4.08984375,-158.203125,-36.1328125,-34.1796875,-236.328125
4.09375,-46.875,-31.25,-33.203125,-29.78515625
4.09765625,73.2421875,-32.2265625,-29.78515625,171.875
4.1015625,-11.23046875,-34.1796875,-29.296875,3.90625
4.10546875,-158.203125,-33.203125,-25.390625,-240.72265625
4.109375,-111.81640625,-37.109375,-28.80859375,-123.53515625
4.11328125,39.55078125,-42.96875,-36.62109375,142.578125
4.1171875,22.4609375,-42.48046875,-36.62109375,77.1484375
4.12109375,-143.06640625,-41.9921875,-39.55078125,-209.9609375
4.125,-150.87890625,-37.109375,-38.0859375,-208.0078125
4.12890625,-14.6484375,-40.0390625,-35.64453125,56.640625
4.1328125,-0.48828125,-47.8515625,-36.62109375,83.0078125
4.13671875,-148.92578125,-41.50390625,-31.25,-201.171875
4.140625,-215.8203125,-34.66796875,-24.90234375,-309.08203125
4.14453125,-100.5859375,-32.2265625,-30.76171875,-70.3125
4.1484375,-24.90234375,-38.57421875,-36.1328125,62.98828125
4.15234375,-145.99609375,-46.38671875,-37.109375,-171.875
4.15625,-270.99609375,-50.29296875,-35.15625,-373.53515625
4.16015625,-188.96484375,-51.26953125,-29.296875,-190.91796875
4.1640625,-59.08203125,-45.41015625,-27.83203125,40.52734375
4.16796875,-119.140625,-44.921875,-31.25,-98.6328125
4.171875,-257.32421875,-43.9453125,-29.78515625,-360.83984375
4.17578125,-239.74609375,-44.43359375,-28.80859375,-284.1796875
4.1796875,-96.6796875,-43.9453125,-31.25,-5.859375
4.18359375,-85.44921875,-40.0390625,-36.1328125,-29.296875
4.1875,-224.609375,-40.0390625,-37.109375,-312.98828125
4.19140625,-250.48828125,-43.45703125,-37.109375,-339.35546875
4.1953125,-112.3046875,-44.43359375,-41.015625,-68.84765625
4.19921875,-69.3359375,-44.43359375,-40.0390625,-0.48828125
4.203125,-174.8046875,-41.9921875,-37.109375,-231.4453125
4.20703125,-231.4453125,-36.1328125,-38.0859375,-328.61328125
4.2109375,-139.16015625,-38.0859375,-40.52734375,-102.5390625
4.21484375,-24.4140625,-43.45703125,-41.9921875,61.03515625
4.21875,-93.75,-39.0625,-37.109375,-119.62890625
4.22265625,-214.35546875,-38.0859375,-32.71484375,-310.546875
4.2265625,-129.39453125,-35.15625,-35.64453125,-132.8125
4.23046875,25.390625,-34.66796875,-41.015625,117.67578125
4.234375,-12.6953125,-36.1328125,-39.0625,0.0
4.23828125,-130.859375,-34.1796875,-39.55078125,-241.2109375
4.2421875,-109.375,-40.0390625,-41.015625,-165.52734375
4.24609375,19.04296875,-37.59765625,-38.0859375,89.84375
4.25,54.19921875,-28.80859375,-38.0859375,88.8671875
4.25390625,-64.453125,-27.34375,-38.0859375,-163.57421875
4.2578125,-108.3984375,-30.2734375,-38.57421875,-197.265625
4.26171875,39.55078125,-23.92578125,-33.203125,87.890625
4.265625,141.6015625,-21.97265625,-29.296875,211.42578125
4.26953125,9.765625,-27.34375,-36.62109375,-31.25
4.2734375,-107.421875,-26.85546875,-37.59765625,-197.75390625
4.27734375,5.859375,-26.3671875,-30.76171875,28.3203125
4.28125,144.53125,-30.76171875,-32.71484375,244.140625
4.28515625,51.26953125,-32.71484375,-37.109375,51.7578125
4.2890625,-89.35546875,-33.203125,-35.15625,-193.84765625
4.29296875,-25.390625,-32.2265625,-38.57421875,-46.875
4.296875,121.58203125,-33.69140625,-37.59765625,222.65625
4.30078125,85.44921875,-36.1328125,-37.109375,134.765625
4.3046875,-63.96484375,-38.57421875,-41.50390625,-128.41796875
4.30859375,-54.19921875,-36.1328125,-38.0859375,-90.33203125
4.3125,99.12109375,-32.2265625,-34.66796875,189.94140625
4.31640625,124.51171875,-32.71484375,-34.1796875,205.078125
4.3203125,-29.78515625,-34.1796875,-36.1328125,-78.125
4.32421875,-77.1484375,-31.73828125,-39.55078125,-146.484375
4.328125,80.56640625,-28.80859375,-34.66796875,125.48828125
4.33203125,168.9453125,-30.76171875,-33.203125,261.71875
4.3359375,27.83203125,-36.1328125,-39.0625,12.6953125
4.33984375,-89.84375,-38.57421875,-39.55078125,-176.26953125
4.34375,13.671875,-35.64453125,-38.57421875,36.1328125
4.34765625,135.7421875,-35.64453125,-37.109375,242.67578125
4.3515625,51.26953125,-36.62109375,-34.66796875,82.03125
4.35546875,-82.03125,-34.66796875,-32.2265625,-149.4140625
4.359375,-31.73828125,-32.71484375,-34.66796875,-48.828125
4.36328125,123.53515625,-28.3203125,-38.0859375,218.26171875
4.3671875,100.5859375,-32.71484375,-37.109375,149.90234375
4.37109375,-53.7109375,-33.203125,-36.62109375,-131.8359375
4.375,-45.41015625,-29.78515625,-41.50390625,-108.3984375
4.37890625,100.09765625,-31.73828125,-38.57421875,168.45703125
4.3828125,138.18359375,-35.15625,-34.66796875,209.47265625
4.38671875,-8.7890625,-35.15625,-35.15625,-61.03515625
4.390625,-74.70703125,-35.15625,-33.69140625,-156.25
4.39453125,43.45703125,-37.109375,-34.66796875,83.984375
4.3984375,131.8359375,-37.59765625,-38.57421875,221.6796875
4.40234375,18.06640625,-38.0859375,-39.0625,-0.9765625
4.40625,-84.9609375,-38.0859375,-34.66796875,-176.7578125
4.41015625,0.9765625,-36.62109375,-28.3203125,10.25390625
4.4140625,120.60546875,-31.73828125,-30.76171875,222.65625
4.41796875,45.8984375,-33.203125,-38.57421875,69.3359375
4.421875,-109.375,-34.1796875,-38.0859375,-181.640625
4.42578125,-56.15234375,-33.203125,-34.66796875,-71.2890625
4.4296875,102.5390625,-35.15625,-38.0859375,202.63671875
4.43359375,62.5,-35.64453125,-41.50390625,132.8125
4.4375,-113.28125,-35.15625,-39.0625,-167.96875
4.44140625,-124.0234375,-34.1796875,-41.9921875,-169.43359375
4.4453125,17.08984375,-34.66796875,-45.41015625,107.91015625
4.44921875,68.359375,-32.71484375,-40.0390625,163.0859375
4.453125,-60.546875,-30.76171875,-37.109375,-102.05078125
4.45703125,-127.9296875,-31.25,-38.0859375,-216.30859375
4.4609375,0.9765625,-30.76171875,-39.55078125,25.390625
4.46484375,107.421875,-27.83203125,-39.55078125,187.98828125
4.46875,-4.39453125,-30.2734375,-39.55078125,-31.73828125
4.47265625,-126.46484375,-31.73828125,-41.015625,-239.2578125
4.4765625,-45.8984375,-36.1328125,-40.52734375,-65.91796875
4.48046875,76.66015625,-36.62109375,-38.0859375,163.0859375
4.484375,34.1796875,-33.69140625,-38.0859375,48.33984375
4.48828125,-111.81640625,-35.15625,-40.0390625,-211.42578125
4.4921875,-91.796875,-35.15625,-41.9921875,-145.99609375
4.49609375,51.7578125,-36.62109375,-41.50390625,128.41796875
4.5,63.4765625,-38.57421875,-36.62109375,126.953125
4.50390625,-90.33203125,-39.0625,-34.66796875,-148.4375
4.5078125,-125.0,-36.1328125,-29.78515625,-201.171875
4.51171875,6.34765625,-34.66796875,-25.87890625,62.01171875
4.515625,64.94140625,-37.59765625,-29.78515625,163.57421875
4.51953125,-50.29296875,-37.59765625,-33.69140625,-66.89453125
4.5234375,-147.4609375,-39.55078125,-37.59765625,-214.35546875
4.52734375,-48.33984375,-40.0390625,-40.52734375,-13.671875
4.53125,75.1953125,-35.64453125,-36.62109375,172.36328125
4.53515625,-11.71875,-36.62109375,-35.64453125,-13.671875
4.5390625,-160.15625,-39.0625,-41.9921875,-253.90625
4.54296875,-101.07421875,-36.1328125,-42.48046875,-108.3984375
4.546875,52.734375,-33.69140625,-40.52734375,152.34375
4.55078125,22.94921875,-32.71484375,-39.55078125,55.17578125
4.5546875,-125.48828125,-32.2265625,-41.9921875,-210.44921875
4.55859375,-114.74609375,-33.203125,-43.9453125,-161.62109375
4.5625,37.109375,-36.1328125,-44.43359375,128.90625
4.56640625,63.4765625,-37.109375,-45.8984375,131.34765625
4.5703125,-97.16796875,-38.0859375,-47.36328125,-175.29296875
4.57421875,-155.2734375,-40.0390625,-42.96875,-238.28125
4.578125,-5.37109375,-37.59765625,-36.1328125,43.9453125
4.58203125,83.0078125,-37.109375,-36.62109375,163.0859375
4.5859375,-36.1328125,-39.0625,-33.203125,-72.265625
4.58984375,-145.01953125,-39.0625,-37.59765625,-234.375
4.59375,-49.8046875,-38.0859375,-39.0625,-30.76171875
4.59765625,84.47265625,-38.0859375,-33.203125,181.640625
4.6015625,5.37109375,-41.50390625,-35.15625,13.18359375
4.60546875,-144.04296875,-46.38671875,-40.0390625,-233.3984375
4.609375,-92.7734375,-44.43359375,-38.0859375,-127.44140625
4.61328125,73.73046875,-40.52734375,-33.69140625,145.5078125
4.6171875,59.5703125,-40.52734375,-31.25,90.33203125
4.62109375,-105.95703125,-39.0625,-30.76171875,-200.1953125
4.625,-122.55859375,-37.109375,-31.73828125,-197.265625
4.62890625,27.34375,-38.0859375,-35.64453125,86.9140625
4.6328125,77.63671875,-41.015625,-33.69140625,135.7421875
4.63671875,-69.82421875,-45.41015625,-34.66796875,-137.6953125
4.640625,-143.5546875,-40.0390625,-30.76171875,-224.609375
4.64453125,-11.23046875,-34.66796875,-29.78515625,30.2734375
4.6484375,72.265625,-38.57421875,-36.1328125,161.1328125
4.65234375,-35.15625,-37.109375,-32.71484375,-62.98828125
4.65625,-145.5078125,-37.109375,-33.69140625,-246.58203125
4.66015625,-64.453125,-41.015625,-36.62109375,-50.29296875
4.6640625,70.80078125,-39.0625,-34.66796875,180.6640625
4.66796875,-19.04296875,-40.52734375,-38.0859375,3.41796875
4.671875,-166.9921875,-41.9921875,-36.62109375,-254.39453125
4.67578125,-118.65234375,-42.48046875,-33.69140625,-143.06640625
4.6796875,31.73828125,-41.9921875,-37.59765625,135.7421875
4.68359375,18.5546875,-40.0390625,-37.109375,82.03125
4.6875,-123.53515625,-36.1328125,-37.59765625,-205.56640625
4.69140625,-136.23046875,-37.59765625,-44.43359375,-215.8203125
4.6953125,5.37109375,-39.0625,-43.9453125,65.4296875
4.69921875,59.5703125,-36.1328125,-41.50390625,133.30078125
4.703125,-74.21875,-38.0859375,-38.0859375,-131.8359375
4.70703125,-141.11328125,-36.1328125,-34.66796875,-232.91015625
4.7109375,-10.7421875,-34.66796875,-36.62109375,14.6484375
4.71484375,83.49609375,-40.52734375,-38.0859375,162.59765625
4.71875,-29.296875,-43.9453125,-39.55078125,-41.9921875
4.72265625,-145.99609375,-41.50390625,-41.015625,-230.46875
4.7265625,-71.77734375,-45.8984375,-40.52734375,-74.21875
4.73046875,48.828125,-43.9453125,-38.57421875,144.04296875
4.734375,8.30078125,-36.1328125,-37.109375,26.3671875
4.73828125,-124.51171875,-39.0625,-41.50390625,-220.21484375
4.7421875,-114.2578125,-41.9921875,-42.48046875,-156.73828125
4.74609375,40.0390625,-38.57421875,-37.59765625,123.046875
4.75,72.75390625,-35.64453125,-39.55078125,123.53515625
4.75390625,-83.49609375,-34.66796875,-37.59765625,-156.73828125
4.7578125,-144.04296875,-39.0625,-39.55078125,-205.56640625
4.76171875,3.41796875,-39.0625,-38.57421875,62.98828125
4.765625,102.5390625,-31.73828125,-31.73828125,175.29296875
4.76953125,-36.62109375,-32.71484375,-31.73828125,-79.1015625
4.7734375,-144.53125,-36.62109375,-33.203125,-234.86328125
4.77734375,-34.66796875,-39.0625,-36.1328125,-19.04296875
4.78125,85.44921875,-41.015625,-34.66796875,161.62109375
4.78515625,-8.7890625,-41.50390625,-38.0859375,-30.2734375
4.7890625,-148.92578125,-39.0625,-43.45703125,-247.55859375
4.79296875,-74.21875,-38.57421875,-38.57421875,-85.9375
4.796875,80.078125,-38.57421875,-32.2265625,171.38671875
4.80078125,32.2265625,-37.59765625,-30.2734375,71.2890625
4.8046875,-134.27734375,-41.50390625,-38.57421875,-210.9375
4.80859375,-128.41796875,-41.9921875,-39.55078125,-175.78125
4.8125,39.0625,-33.69140625,-34.66796875,115.234375
4.81640625,71.77734375,-30.2734375,-37.59765625,131.34765625
4.8203125,-92.7734375,-37.59765625,-40.52734375,-158.69140625
4.82421875,-149.4140625,-41.015625,-40.0390625,-227.5390625
4.828125,-5.859375,-34.66796875,-33.203125,49.31640625
4.83203125,70.3125,-32.71484375,-34.66796875,166.015625
4.8359375,-57.12890625,-36.62109375,-34.1796875,-89.35546875
4.83984375,-149.4140625,-38.0859375,-34.66796875,-242.67578125
4.84375,-50.78125,-37.109375,-38.57421875,-22.94921875
4.84765625,72.265625,-35.15625,-34.1796875,179.19921875
4.8515625,-3.90625,-37.59765625,-35.64453125,6.8359375
4.85546875,-155.2734375,-41.9921875,-40.0390625,-242.1875
4.859375,-98.6328125,-37.109375,-38.57421875,-114.2578125
4.86328125,63.96484375,-32.2265625,-38.0859375,154.296875
4.8671875,38.0859375,-38.0859375,-39.0625,69.3359375
4.87109375,-126.46484375,-41.015625,-34.1796875,-208.49609375
4.875,-142.08984375,-41.9921875,-36.1328125,-190.4296875
4.87890625,17.578125,-41.9921875,-40.0390625,99.12109375
4.8828125,58.10546875,-41.9921875,-41.015625,129.39453125
4.88671875,-101.07421875,-41.9921875,-42.48046875,-160.15625
4.890625,-162.59765625,-38.0859375,-32.2265625,-238.76953125
4.89453125,-7.32421875,-36.1328125,-28.3203125,56.15234375
4.8984375,80.078125,-41.015625,-32.2265625,194.3359375
4.90234375,-60.546875,-40.52734375,-33.203125,-72.75390625
4.90625,-155.2734375,-38.0859375,-35.64453125,-248.53515625
4.91015625,-45.41015625,-40.52734375,-35.64453125,-31.73828125
4.9140625,76.171875,-42.48046875,-37.59765625,180.17578125
4.91796875,0.0,-42.48046875,-35.15625,7.32421875
4.921875,-134.27734375,-42.96875,-27.34375,-226.5625
4.92578125,-94.23828125,-41.9921875,-28.80859375,-110.83984375
4.9296875,56.640625,-34.1796875,-31.25,151.85546875
4.93359375,39.0625,-35.64453125,-32.2265625,96.19140625
4.9375,-109.86328125,-37.109375,-34.66796875,-180.17578125
4.94140625,-111.328125,-32.71484375,-33.203125,-175.78125
4.9453125,17.08984375,-39.0625,-37.59765625,83.984375
4.94921875,41.9921875,-37.109375,-39.55078125,126.46484375
4.953125,-93.75,-34.66796875,-33.69140625,-146.484375
4.95703125,-164.0625,-35.15625,-36.1328125,-261.71875
4.9609375,-29.78515625,-25.87890625,-34.66796875,15.625
4.96484375,60.546875,-27.83203125,-34.1796875,173.828125
4.96875,-40.0390625,-34.66796875,-35.64453125,-56.640625
4.97265625,-150.87890625,-31.25,-32.2265625,-251.46484375
4.9765625,-76.171875,-29.296875,-30.76171875,-69.3359375
4.98046875,68.84765625,-30.2734375,-30.2734375,176.7578125
4.984375,5.37109375,-30.76171875,-34.1796875,37.59765625
4.98828125,-149.4140625,-33.203125,-35.64453125,-241.69921875
4.9921875,-118.65234375,-37.109375,-36.1328125,-151.85546875
4.99609375,19.53125,-42.48046875,-41.9921875,123.046875
5.0,20.99609375,-45.41015625,-43.45703125,92.28515625
5.00390625,-112.79296875,-43.45703125,-42.48046875,-175.29296875
5.0078125,-141.11328125,-39.55078125,-37.109375,-198.73046875
5.01171875,-9.27734375,-37.109375,-34.1796875,71.2890625
5.015625,53.22265625,-37.59765625,-35.64453125,151.3671875
5.01953125,-61.5234375,-37.109375,-37.59765625,-96.6796875
5.0234375,-146.484375,-37.59765625,-33.203125,-216.30859375
5.02734375,-40.52734375,-38.57421875,-31.25,6.8359375
5.03125,90.8203125,-35.64453125,-28.80859375,185.546875
5.03515625,-18.5546875,-38.0859375,-30.2734375,-20.99609375
5.0390625,-157.2265625,-40.52734375,-38.0859375,-242.67578125
5.04296875,-87.890625,-38.0859375,-33.203125,-81.0546875
5.046875,50.78125,-35.15625,-31.73828125,160.15625
5.05078125,27.83203125,-34.1796875,-33.203125,48.33984375
5.0546875,-120.60546875,-36.62109375,-35.15625,-208.49609375
5.05859375,-116.69921875,-34.66796875,-32.71484375,-151.3671875
5.0625,41.9921875,-30.76171875,-27.83203125,138.18359375
5.06640625,57.12890625,-33.69140625,-31.25,148.4375
5.0703125,-95.703125,-38.57421875,-32.2265625,-146.484375
5.07421875,-141.6015625,-38.57421875,-30.76171875,-210.9375
5.078125,0.9765625,-35.15625,-30.2734375,62.01171875
5.08203125,74.70703125,-32.2265625,-31.73828125,176.7578125
5.0859375,-53.7109375,-34.1796875,-33.69140625,-71.77734375
5.08984375,-160.15625,-34.66796875,-35.64453125,-243.65234375
5.09375,-59.5703125,-31.73828125,-31.73828125,-28.3203125
5.09765625,70.3125,-32.71484375,-29.78515625,173.33984375
5.1015625,-16.6015625,-38.0859375,-33.203125,-14.6484375
5.10546875,-163.0859375,-42.48046875,-36.1328125,-252.9296875
5.109375,-92.28515625,-38.57421875,-33.69140625,-105.46875
5.11328125,50.78125,-39.0625,-37.59765625,145.5078125
5.1171875,4.8828125,-38.57421875,-41.50390625,41.015625
5.12109375,-125.0,-39.0625,-38.0859375,-216.796875
5.125,-121.09375,-43.45703125,-38.0859375,-176.26953125
5.12890625,25.87890625,-36.1328125,-35.64453125,105.95703125
5.1328125,50.78125,-40.0390625,-39.0625,126.46484375
5.13671875,-106.4453125,-45.8984375,-40.52734375,-162.59765625
5.140625,-146.484375,-40.52734375,-38.0859375,-227.05078125
5.14453125,-10.7421875,-42.96875,-34.66796875,35.64453125
5.1484375,67.3828125,-41.9921875,-32.71484375,158.203125
5.15234375,-58.59375,-39.55078125,-30.76171875,-79.1015625
5.15625,-155.76171875,-39.55078125,-30.2734375,-242.67578125
5.16015625,-52.24609375,-41.50390625,-33.203125,-28.80859375
5.1640625,67.87109375,-41.015625,-35.15625,178.22265625
5.16796875,-8.7890625,-39.55078125,-40.52734375,0.0
5.171875,-146.484375,-37.109375,-41.9921875,-242.1875
5.17578125,-82.03125,-37.59765625,-41.9921875,-117.67578125
5.1796875,65.91796875,-38.57421875,-41.50390625,144.53125
5.18359375,36.62109375,-36.1328125,-38.57421875,77.63671875
5.1875,-111.81640625,-39.0625,-41.015625,-194.82421875
5.19140625,-126.46484375,-42.96875,-42.48046875,-199.70703125
5.1953125,22.4609375,-38.0859375,-40.0390625,85.9375
5.19921875,62.98828125,-36.1328125,-38.57421875,150.87890625
5.203125,-78.61328125,-36.1328125,-33.69140625,-110.3515625
5.20703125,-152.83203125,-37.59765625,-39.55078125,-214.84375
5.2109375,-36.62109375,-41.9921875,-42.96875,22.4609375
5.21484375,79.58984375,-35.15625,-34.66796875,178.7109375
5.21875,-24.90234375,-34.66796875,-35.15625,-36.62109375
5.22265625,-149.4140625,-37.109375,-38.57421875,-248.046875
5.2265625,-66.40625,-36.1328125,-41.015625,-75.1953125
5.23046875,59.5703125,-37.59765625,-35.64453125,154.78515625
5.234375,12.6953125,-38.57421875,-34.1796875,15.625
5.23828125,-136.23046875,-44.43359375,-43.9453125,-243.1640625
5.2421875,-112.79296875,-41.9921875,-41.015625,-144.53125
5.24609375,40.52734375,-38.57421875,-39.55078125,125.9765625
5.25,47.8515625,-35.64453125,-41.015625,93.75
5.25390625,-106.93359375,-34.66796875,-37.109375,-185.546875
5.2578125,-153.3203125,-41.9921875,-37.109375,-224.609375
5.26171875,16.11328125,-38.0859375,-36.62109375,74.21875
5.265625,81.0546875,-35.64453125,-32.2265625,159.1796875
5.26953125,-61.5234375,-38.57421875,-36.1328125,-113.76953125
5.2734375,-144.04296875,-41.9921875,-40.0390625,-247.0703125
5.27734375,-55.17578125,-50.78125,-44.921875,-24.90234375
5.28125,67.87109375,-46.875,-45.41015625,165.0390625
5.28515625,-11.23046875,-41.9921875,-45.41015625,-25.87890625
5.2890625,-143.5546875,-42.48046875,-45.8984375,-245.1171875
5.29296875,-64.94140625,-37.109375,-40.52734375,-83.0078125
5.296875,81.54296875,-39.0625,-37.109375,161.62109375
5.30078125,27.34375,-41.50390625,-39.55078125,46.875
5.3046875,-131.8359375,-41.015625,-43.9453125,-223.14453125
5.30859375,-101.07421875,-42.96875,-37.59765625,-145.5078125
5.3125,61.5234375,-44.43359375,-32.2265625,161.62109375
5.31640625,70.80078125,-41.015625,-35.64453125,148.4375
5.3203125,-92.28515625,-40.52734375,-40.0390625,-146.484375
5.32421875,-152.34375,-41.9921875,-40.52734375,-214.35546875
5.328125,-17.08984375,-35.64453125,-37.109375,38.57421875
5.33203125,63.96484375,-30.76171875,-31.25,149.90234375
5.3359375,-65.4296875,-36.62109375,-37.109375,-94.23828125
5.33984375,-170.41015625,-41.50390625,-39.55078125,-250.9765625
5.34375,-48.33984375,-37.109375,-34.66796875,-16.11328125
5.34765625,90.8203125,-32.71484375,-33.69140625,186.5234375
5.3515625,-11.23046875,-33.69140625,-34.66796875,-13.671875
5.35546875,-152.83203125,-35.15625,-35.15625,-247.0703125
5.359375,-68.359375,-34.66796875,-33.69140625,-87.890625
5.36328125,89.84375,-33.203125,-33.203125,176.26953125
5.3671875,33.69140625,-36.1328125,-33.203125,70.80078125
5.37109375,-137.6953125,-41.50390625,-30.76171875,-221.6796875
5.375,-128.41796875,-42.96875,-39.0625,-187.98828125
5.37890625,20.5078125,-41.9921875,-44.921875,106.4453125
5.3828125,52.24609375,-35.64453125,-39.55078125,135.7421875
5.38671875,-98.14453125,-36.62109375,-37.59765625,-160.15625
5.390625,-161.1328125,-37.59765625,-35.15625,-248.046875
5.39453125,-22.94921875,-36.62109375,-32.71484375,16.6015625
5.3984375,50.29296875,-40.0390625,-34.1796875,137.6953125
5.40234375,-90.8203125,-39.55078125,-36.1328125,-115.72265625
5.40625,-214.84375,-40.52734375,-36.62109375,-307.12890625
5.41015625,-118.1640625,-39.55078125,-33.69140625,-108.3984375
5.4140625,7.32421875,-38.0859375,-35.64453125,100.5859375
5.41796875,-108.3984375,-42.96875,-43.9453125,-99.12109375
5.421875,-247.0703125,-43.45703125,-41.50390625,-339.84375
5.42578125,-191.40625,-39.0625,-33.69140625,-211.42578125
5.4296875,-62.01171875,-41.015625,-35.64453125,41.015625
5.43359375,-97.16796875,-47.36328125,-39.0625,-32.71484375
5.4375,-245.1171875,-45.41015625,-36.62109375,-302.734375
5.44140625,-255.37109375,-43.45703125,-36.62109375,-298.828125
5.4453125,-111.81640625,-41.015625,-35.64453125,-32.71484375
5.44921875,-68.84765625,-46.875,-36.62109375,1.46484375
5.453125,-207.03125,-47.8515625,-39.55078125,-272.94921875
5.45703125,-263.671875,-41.015625,-40.0390625,-354.4921875
5.4609375,-141.11328125,-39.55078125,-38.57421875,-97.65625
5.46484375,-58.10546875,-42.48046875,-35.64453125,23.92578125
5.46875,-168.45703125,-43.9453125,-34.66796875,-205.56640625
5.47265625,-279.296875,-41.50390625,-37.109375,-383.7890625
5.4765625,-190.4296875,-44.921875,-38.57421875,-195.3125
5.48046875,-46.38671875,-44.43359375,-40.52734375,53.7109375
5.484375,-96.6796875,-41.9921875,-45.8984375,-73.2421875
5.48828125,-241.69921875,-39.55078125,-45.8984375,-333.49609375
5.4921875,-205.56640625,-37.59765625,-41.015625,-237.3046875
5.49609375,-30.76171875,-37.59765625,-41.015625,57.12890625
5.5,-26.3671875,-37.109375,-41.50390625,24.90234375
5.50390625,-184.5703125,-36.62109375,-45.41015625,-261.71875
5.5078125,-214.35546875,-38.57421875,-47.8515625,-282.2265625
5.51171875,-74.70703125,-34.66796875,-42.48046875,-1.953125
5.515625,6.8359375,-32.71484375,-44.921875,88.8671875
5.51953125,-121.58203125,-33.203125,-44.921875,-167.96875
5.5234375,-192.87109375,-32.2265625,-37.59765625,-285.15625
5.52734375,-78.125,-33.69140625,-39.55078125,-48.33984375
5.53125,26.3671875,-32.2265625,-42.48046875,119.140625
5.53515625,-65.4296875,-37.109375,-43.45703125,-86.42578125
5.5390625,-184.08203125,-45.8984375,-44.43359375,-296.875
5.54296875,-87.40234375,-40.0390625,-43.45703125,-111.81640625
5.546875,77.1484375,-32.71484375,-46.38671875,156.25
5.55078125,47.36328125,-30.76171875,-47.8515625,44.921875
5.5546875,-94.7265625,-31.73828125,-45.8984375,-210.9375
5.55859375,-79.58984375,-31.25,-40.52734375,-139.16015625
5.5625,75.1953125,-30.2734375,-40.52734375,147.4609375
5.56640625,108.88671875,-31.73828125,-42.48046875,158.69140625
5.5703125,-31.25,-34.66796875,-43.45703125,-120.60546875
5.57421875,-79.1015625,-35.15625,-41.9921875,-168.9453125
5.578125,61.03515625,-37.59765625,-41.015625,117.67578125
5.58203125,134.27734375,-40.0390625,-40.0390625,217.7734375
5.5859375,11.71875,-38.57421875,-40.52734375,-45.41015625
5.58984375,-70.80078125,-37.59765625,-41.50390625,-179.6875
5.59375,40.0390625,-37.109375,-32.71484375,62.98828125
5.59765625,166.9921875,-36.62109375,-28.3203125,263.671875
5.6015625,77.63671875,-37.59765625,-38.0859375,74.70703125
5.60546875,-74.21875,-36.62109375,-36.1328125,-167.48046875
5.609375,-12.6953125,-33.203125,-32.2265625,-31.73828125
5.61328125,146.484375,-32.71484375,-38.0859375,239.74609375
5.6171875,112.79296875,-35.64453125,-39.55078125,148.4375
5.62109375,-54.6875,-37.109375,-35.64453125,-140.13671875
5.625,-42.96875,-39.0625,-30.2734375,-87.40234375
5.62890625,120.60546875,-35.64453125,-33.203125,208.0078125
5.6328125,139.6484375,-34.1796875,-39.55078125,218.75
5.63671875,-7.8125,-34.1796875,-37.59765625,-70.3125
5.640625,-45.41015625,-29.78515625,-34.1796875,-129.39453125
5.64453125,88.37890625,-26.3671875,-31.25,139.16015625
5.6484375,165.52734375,-27.83203125,-35.15625,257.32421875
5.65234375,25.87890625,-29.78515625,-36.62109375,9.765625
5.65625,-78.125,-30.76171875,-38.0859375,-151.3671875
5.66015625,40.0390625,-30.2734375,-30.76171875,56.15234375
5.6640625,168.9453125,-29.296875,-31.25,254.8828125
5.66796875,69.3359375,-31.73828125,-35.64453125,68.84765625
5.671875,-67.3828125,-29.78515625,-32.71484375,-175.29296875
5.67578125,-8.7890625,-33.203125,-38.57421875,-46.38671875
5.6796875,121.58203125,-34.1796875,-34.1796875,209.9609375
5.68359375,97.65625,-35.64453125,-32.2265625,137.6953125
5.6875,-69.82421875,-40.52734375,-38.57421875,-154.78515625
5.69140625,-77.1484375,-36.1328125,-36.1328125,-145.01953125
5.6953125,77.1484375,-39.0625,-36.1328125,147.4609375
5.69921875,104.4921875,-41.50390625,-34.1796875,197.265625
5.703125,-40.0390625,-40.52734375,-37.109375,-81.54296875
5.70703125,-115.234375,-45.41015625,-38.0859375,-186.03515625
5.7109375,15.13671875,-41.015625,-31.25,78.61328125
5.71484375,104.4921875,-37.109375,-31.25,224.609375
5.71875,-13.18359375,-38.57421875,-28.80859375,-10.25390625
5.72265625,-117.67578125,-39.55078125,-25.87890625,-195.3125
5.7265625,-27.83203125,-38.57421875,-23.92578125,-14.16015625
5.73046875,108.3984375,-36.1328125,-23.4375,218.26171875
5.734375,48.33984375,-33.203125,-30.2734375,79.58984375
5.73828125,-91.796875,-33.69140625,-33.203125,-177.24609375
5.7421875,-78.61328125,-36.1328125,-29.78515625,-88.37890625
5.74609375,57.12890625,-35.64453125,-33.69140625,168.45703125
5.75,73.73046875,-33.203125,-37.109375,139.6484375
5.75390625,-85.9375,-31.25,-37.109375,-145.01953125
5.7578125,-125.9765625,-33.203125,-41.015625,-173.33984375
5.76171875,27.34375,-32.71484375,-43.45703125,107.421875
5.765625,93.75,-29.78515625,-42.96875,170.41015625
5.76953125,-58.59375,-30.76171875,-47.8515625,-110.3515625
5.7734375,-148.92578125,-34.66796875,-43.9453125,-239.2578125
5.77734375,-14.6484375,-37.59765625,-38.57421875,11.71875
5.78125,98.6328125,-33.69140625,-44.43359375,185.05859375
5.78515625,-8.30078125,-32.2265625,-42.96875,-33.203125
5.7890625,-134.765625,-35.64453125,-41.50390625,-235.83984375
5.79296875,-62.01171875,-36.1328125,-41.015625,-72.75390625
5.796875,58.10546875,-37.109375,-39.0625,159.1796875
5.80078125,13.671875,-35.64453125,-36.62109375,52.24609375
5.8046875,-121.58203125,-38.0859375,-35.64453125,-215.8203125
5.80859375,-106.93359375,-41.015625,-35.15625,-154.78515625
5.8125,55.6640625,-38.57421875,-32.71484375,131.34765625
5.81640625,66.40625,-43.45703125,-33.203125,117.1875
5.8203125,-90.33203125,-44.43359375,-38.57421875,-164.55078125
5.82421875,-130.37109375,-43.45703125,-40.0390625,-201.66015625
5.828125,12.20703125,-37.59765625,-32.71484375,81.54296875
5.83203125,86.9140625,-32.71484375,-25.87890625,176.7578125
5.8359375,-62.98828125,-43.9453125,-37.59765625,-103.515625
5.83984375,-172.8515625,-47.36328125,-45.41015625,-264.6484375
5.84375,-48.33984375,-38.57421875,-39.55078125,-28.80859375
5.84765625,74.70703125,-38.0859375,-38.57421875,167.96875
5.8515625,-14.16015625,-41.9921875,-37.109375,-15.13671875
5.85546875,-139.16015625,-36.1328125,-36.1328125,-236.81640625
5.859375,-71.77734375,-35.64453125,-37.109375,-86.9140625
5.86328125,67.87109375,-39.0625,-34.66796875,159.66796875
5.8671875,30.2734375,-35.64453125,-34.1796875,53.22265625
5.87109375,-108.3984375,-34.66796875,-35.15625,-216.796875
5.875,-87.890625,-35.15625,-37.109375,-159.66796875
5.87890625,61.5234375,-31.73828125,-37.59765625,132.32421875
5.8828125,71.2890625,-34.66796875,-40.0390625,139.6484375
5.88671875,-102.5390625,-40.52734375,-43.45703125,-177.734375
5.890625,-147.4609375,-41.9921875,-41.50390625,-250.0
5.89453125,-1.953125,-44.43359375,-38.0859375,37.109375
5.8984375,72.265625,-41.50390625,-36.62109375,147.94921875
5.90234375,-53.22265625,-38.57421875,-40.0390625,-98.14453125
5.90625,-147.4609375,-41.015625,-41.50390625,-251.953125
5.91015625,-40.0390625,-40.52734375,-35.64453125,-26.3671875
5.9140625,68.359375,-41.015625,-35.15625,173.828125
5.91796875,-25.390625,-44.43359375,-41.50390625,-6.34765625
5.921875,-155.76171875,-43.9453125,-36.62109375,-236.328125
5.92578125,-91.796875,-40.0390625,-29.296875,-103.02734375
5.9296875,46.38671875,-40.0390625,-34.66796875,154.78515625
5.93359375,14.16015625,-39.55078125,-35.64453125,70.80078125
5.9375,-132.8125,-36.62109375,-36.1328125,-206.0546875
5.94140625,-107.91015625,-36.62109375,-39.0625,-164.0625
5.9453125,43.9453125,-36.1328125,-41.015625,118.1640625
5.94921875,26.3671875,-41.015625,-41.9921875,98.6328125
5.953125,-141.6015625,-43.9453125,-37.109375,-199.70703125
5.95703125,-204.58984375,-38.57421875,-40.52734375,-294.921875
5.9609375,-103.02734375,-38.0859375,-45.41015625,-73.2421875
5.96484375,-35.64453125,-43.9453125,-45.41015625,43.45703125
5.96875,-155.2734375,-41.9921875,-46.38671875,-192.3828125
5.97265625,-304.6875,-43.45703125,-50.78125,-416.9921875
5.9765625,-244.140625,-44.921875,-51.26953125,-253.90625
5.98046875,-124.0234375,-40.0390625,-52.24609375,-41.50390625
5.984375,-198.73046875,-41.015625,-57.6171875,-209.9609375
5.98828125,-330.078125,-40.52734375,-55.6640625,-451.171875
5.9921875,-304.6875,-36.62109375,-52.734375,-350.09765625
5.99609375,-180.6640625,-43.45703125,-55.17578125,-95.21484375
6.0,-188.96484375,-46.38671875,-58.59375,-139.16015625
6.00390625,-346.6796875,-45.8984375,-58.10546875,-422.36328125
6.0078125,-379.8828125,-46.875,-63.96484375,-452.63671875
6.01171875,-238.76953125,-44.43359375,-63.96484375,-182.6171875
6.015625,-179.6875,-42.48046875,-53.7109375,-100.09765625
6.01953125,-314.94140625,-41.9921875,-57.12890625,-369.62890625
6.0234375,-383.30078125,-43.45703125,-59.5703125,-491.2109375
6.02734375,-261.23046875,-43.9453125,-58.10546875,-241.69921875
6.03125,-150.390625,-38.57421875,-60.05859375,-80.078125
6.03515625,-243.1640625,-38.0859375,-59.08203125,-284.1796875
6.0390625,-370.60546875,-41.015625,-59.5703125,-485.83984375
6.04296875,-286.1328125,-42.48046875,-61.03515625,-305.6640625
6.046875,-107.91015625,-39.0625,-59.08203125,-41.50390625
6.05078125,-160.15625,-44.43359375,-60.546875,-181.640625
6.0546875,-300.78125,-43.45703125,-63.96484375,-434.08203125
6.05859375,-255.859375,-41.9921875,-63.4765625,-328.61328125
6.0625,-105.46875,-41.015625,-64.453125,-44.921875
6.06640625,-77.63671875,-34.66796875,-62.5,-56.15234375
6.0703125,-223.6328125,-35.64453125,-57.12890625,-335.44921875
6.07421875,-273.4375,-37.59765625,-57.12890625,-379.39453125
6.078125,-116.69921875,-37.109375,-62.5,-83.984375
6.08203125,-10.25390625,-32.2265625,-58.59375,41.015625
6.0859375,-136.71875,-34.66796875,-51.7578125,-205.078125
6.08984375,-241.69921875,-42.48046875,-60.05859375,-344.23828125
6.09375,-129.8828125,-40.0390625,-62.5,-108.88671875
6.09765625,-11.71875,-37.59765625,-52.24609375,80.56640625
6.1015625,-92.7734375,-33.203125,-51.26953125,-104.00390625
6.10546875,-207.03125,-32.71484375,-54.19921875,-306.15234375
6.109375,-137.20703125,-36.62109375,-55.17578125,-146.484375
6.11328125,23.4375,-35.15625,-51.26953125,113.28125
6.1171875,-17.08984375,-42.96875,-54.6875,5.37109375
6.12109375,-192.87109375,-50.29296875,-59.5703125,-279.296875
6.125,-144.04296875,-45.41015625,-55.17578125,-207.03125
6.12890625,30.76171875,-40.52734375,-51.7578125,89.84375
6.1328125,41.015625,-38.57421875,-45.8984375,89.35546875
6.13671875,-99.12109375,-39.0625,-45.8984375,-185.546875
6.140625,-124.51171875,-39.55078125,-52.24609375,-222.16796875
6.14453125,12.20703125,-36.62109375,-45.8984375,51.7578125
6.1484375,78.125,-34.1796875,-41.50390625,157.2265625
6.15234375,-37.109375,-38.57421875,-41.015625,-80.078125
6.15625,-137.20703125,-38.57421875,-41.015625,-238.76953125
6.16015625,-45.8984375,-41.015625,-37.59765625,-26.85546875
6.1640625,84.47265625,-41.015625,-38.0859375,192.3828125
6.16796875,-1.953125,-39.0625,-40.0390625,18.06640625
6.171875,-150.87890625,-41.015625,-37.109375,-230.95703125
6.17578125,-86.9140625,-40.0390625,-36.62109375,-102.05078125
6.1796875,66.89453125,-39.0625,-39.55078125,176.26953125
6.18359375,43.9453125,-39.0625,-42.96875,106.4453125
6.1875,-92.28515625,-37.59765625,-39.55078125,-172.36328125
6.19140625,-89.35546875,-35.15625,-37.59765625,-146.97265625
6.1953125,58.10546875,-33.69140625,-42.48046875,140.13671875
6.19921875,108.3984375,-32.2265625,-39.55078125,178.7109375
6.203125,-26.3671875,-31.73828125,-41.015625,-92.28515625
6.20703125,-97.65625,-32.2265625,-46.38671875,-180.17578125
6.2109375,34.66796875,-28.3203125,-44.921875,79.1015625
6.21484375,108.3984375,-27.83203125,-46.38671875,199.70703125
6.21875,-1.46484375,-31.25,-46.38671875,-36.1328125
6.22265625,-83.984375,-27.34375,-43.45703125,-195.3125
6.2265625,2.9296875,-28.3203125,-43.9453125,-0.9765625
6.23046875,124.0234375,-31.73828125,-43.45703125,201.66015625
6.234375,68.359375,-32.2265625,-39.0625,52.734375
6.23828125,-76.66015625,-34.66796875,-38.57421875,-187.01171875
6.2421875,-36.62109375,-36.1328125,-39.0625,-71.77734375
6.24609375,105.95703125,-38.0859375,-38.0859375,197.75390625
6.25,84.47265625,-40.0390625,-38.0859375,132.32421875
6.25390625,-62.98828125,-36.1328125,-35.64453125,-133.30078125
6.2578125,-80.56640625,-34.66796875,-35.15625,-122.55859375
6.26171875,55.6640625,-36.1328125,-38.0859375,143.5546875
6.265625,83.49609375,-34.1796875,-39.55078125,173.33984375
6.26953125,-57.6171875,-34.1796875,-39.0625,-110.3515625
6.2734375,-108.3984375,-38.0859375,-41.015625,-206.0546875
6.27734375,18.5546875,-34.1796875,-41.50390625,52.734375
6.28125,133.30078125,-32.71484375,-34.66796875,227.5390625
6.28515625,37.109375,-35.64453125,-26.3671875,21.97265625
6.2890625,-79.58984375,-31.73828125,-25.87890625,-169.43359375
6.29296875,5.859375,-34.66796875,-30.76171875,2.9296875
6.296875,138.671875,-40.52734375,-32.71484375,229.00390625
6.30078125,97.65625,-33.203125,-25.390625,105.46875
6.3046875,-60.546875,-35.15625,-24.90234375,-167.96875
6.30859375,-55.6640625,-38.57421875,-35.64453125,-105.46875
6.3125,114.2578125,-33.69140625,-34.1796875,175.29296875
6.31640625,124.0234375,-34.66796875,-32.71484375,151.3671875
6.3203125,-49.31640625,-36.1328125,-40.0390625,-130.37109375
6.32421875,-93.75,-32.71484375,-40.0390625,-163.0859375
6.328125,56.640625,-32.2265625,-35.15625,113.76953125
6.33203125,129.39453125,-33.203125,-32.2265625,202.63671875
6.3359375,-10.25390625,-32.71484375,-33.69140625,-57.6171875
6.33984375,-91.796875,-32.71484375,-35.64453125,-182.12890625
6.34375,20.99609375,-34.66796875,-36.1328125,52.734375
6.34765625,118.65234375,-35.64453125,-37.59765625,221.6796875
6.3515625,15.625,-39.55078125,-38.57421875,13.18359375
6.35546875,-123.53515625,-35.64453125,-36.1328125,-214.84375
6.359375,-37.109375,-33.203125,-33.203125,-41.50390625
6.36328125,116.69921875,-33.203125,-32.2265625,211.42578125
6.3671875,65.91796875,-36.62109375,-41.9921875,90.8203125
6.37109375,-102.5390625,-40.52734375,-43.45703125,-188.96484375
6.375,-81.0546875,-41.015625,-34.1796875,-115.72265625
6.37890625,62.5,-40.52734375,-37.109375,171.38671875
6.3828125,62.98828125,-41.50390625,-38.57421875,147.4609375
6.38671875,-82.51953125,-46.38671875,-36.1328125,-134.27734375
6.390625,-117.67578125,-44.921875,-33.69140625,-183.59375
6.39453125,39.0625,-42.96875,-31.25,91.796875
6.3984375,101.07421875,-42.48046875,-40.0390625,194.3359375
6.40234375,-44.921875,-40.52734375,-38.0859375,-63.96484375
6.40625,-130.859375,-41.50390625,-38.0859375,-216.796875
6.41015625,-14.16015625,-37.109375,-39.55078125,2.44140625
6.4140625,106.93359375,-35.64453125,-40.0390625,203.125
6.41796875,15.625,-34.1796875,-43.9453125,11.23046875
6.421875,-99.12109375,-32.71484375,-40.0390625,-215.33203125
6.42578125,-23.4375,-33.203125,-39.55078125,-57.6171875
6.4296875,109.86328125,-34.66796875,-40.52734375,193.359375
6.43359375,58.10546875,-35.64453125,-35.15625,86.42578125
6.4375,-96.19140625,-40.52734375,-36.62109375,-183.59375
6.44140625,-88.37890625,-42.48046875,-34.1796875,-141.11328125
6.4453125,49.8046875,-42.96875,-32.71484375,125.48828125
6.44921875,64.453125,-46.38671875,-39.55078125,121.09375
6.453125,-72.75390625,-41.50390625,-37.59765625,-159.66796875
6.45703125,-133.30078125,-44.921875,-35.15625,-238.76953125
6.4609375,-5.859375,-46.38671875,-37.109375,17.578125
6.46484375,83.49609375,-41.50390625,-35.64453125,152.34375
6.46875,-38.57421875,-39.55078125,-32.71484375,-81.0546875
6.47265625,-164.55078125,-38.0859375,-37.109375,-260.7421875
6.4765625,-70.3125,-36.62109375,-35.15625,-46.875
6.48046875,69.82421875,-31.25,-33.203125,176.7578125
6.484375,-7.8125,-32.2265625,-32.71484375,10.25390625
6.48828125,-138.671875,-37.109375,-29.296875,-224.609375
6.4921875,-89.35546875,-36.62109375,-33.203125,-93.75
6.49609375,41.015625,-39.55078125,-37.109375,162.109375
6.5,8.30078125,-41.50390625,-33.203125,71.2890625
6.50390625,-132.8125,-38.0859375,-33.69140625,-205.078125
6.5078125,-128.90625,-38.57421875,-41.9921875,-186.03515625
6.51171875,14.6484375,-41.015625,-39.55078125,86.9140625
6.515625,67.3828125,-36.1328125,-33.69140625,141.6015625
6.51953125,-63.4765625,-40.0390625,-30.2734375,-125.0
6.5234375,-141.11328125,-41.50390625,-34.1796875,-228.515625
6.52734375,-18.06640625,-38.57421875,-34.66796875,25.87890625
6.53125,96.6796875,-41.015625,-31.25,183.10546875
6.53515625,-14.16015625,-41.50390625,-30.2734375,-36.62109375
6.5390625,-135.7421875,-38.57421875,-36.1328125,-224.12109375
6.54296875,-61.5234375,-35.64453125,-37.59765625,-53.7109375
6.546875,72.75390625,-33.69140625,-34.1796875,168.9453125
6.55078125,25.390625,-35.15625,-31.25,36.62109375
6.5546875,-127.44140625,-35.64453125,-32.71484375,-222.16796875
6.55859375,-96.19140625,-34.1796875,-38.0859375,-132.8125
6.5625,67.3828125,-35.15625,-40.52734375,153.3203125
6.56640625,68.359375,-30.2734375,-36.1328125,119.140625
6.5703125,-90.33203125,-31.25,-31.73828125,-173.33984375
6.57421875,-122.0703125,-31.25,-34.66796875,-188.96484375
6.578125,34.1796875,-24.90234375,-33.69140625,98.6328125
6.58203125,85.9375,-31.25,-29.296875,168.45703125
6.5859375,-71.2890625,-40.52734375,-35.15625,-114.2578125
6.58984375,-160.15625,-42.96875,-39.55078125,-255.37109375
6.59375,-39.55078125,-40.52734375,-35.64453125,-10.7421875
6.59765625,79.58984375,-36.62109375,-34.1796875,176.26953125
6.6015625,-12.6953125,-37.59765625,-33.69140625,-16.11328125
6.60546875,-140.13671875,-36.1328125,-35.15625,-232.421875
6.609375,-59.08203125,-31.25,-37.109375,-68.359375
6.61328125,83.0078125,-35.15625,-35.64453125,179.6875
6.6171875,23.4375,-37.59765625,-36.62109375,42.48046875
6.62109375,-122.0703125,-40.0390625,-42.48046875,-228.02734375
6.625,-92.28515625,-41.015625,-37.109375,-148.92578125
6.62890625,50.29296875,-40.52734375,-36.62109375,126.46484375
6.6328125,60.546875,-40.52734375,-41.015625,111.328125
6.63671875,-101.07421875,-37.59765625,-34.1796875,-176.26953125
6.640625,-138.18359375,-38.57421875,-34.1796875,-215.8203125
6.64453125,3.90625,-42.96875,-41.015625,62.01171875
6.6484375,65.91796875,-44.921875,-42.96875,156.73828125
6.65234375,-62.01171875,-41.50390625,-40.52734375,-88.8671875
6.65625,-144.53125,-41.50390625,-41.015625,-232.91015625
6.66015625,-33.69140625,-38.0859375,-38.0859375,-14.16015625
6.6640625,86.42578125,-36.62109375,-36.1328125,179.19921875
6.66796875,-4.39453125,-41.50390625,-41.50390625,-6.8359375
6.671875,-146.484375,-43.45703125,-44.921875,-240.72265625
6.67578125,-76.66015625,-38.57421875,-41.9921875,-95.703125
6.6796875,59.5703125,-36.62109375,-37.109375,156.73828125
6.68359375,18.5546875,-34.66796875,-32.2265625,63.4765625
6.6875,-132.32421875,-33.203125,-33.69140625,-211.9140625
6.69140625,-120.1171875,-33.69140625,-33.69140625,-176.26953125
6.6953125,28.3203125,-37.109375,-35.64453125,96.6796875
6.69921875,41.50390625,-36.1328125,-29.78515625,100.09765625
6.703125,-92.28515625,-31.25,-30.76171875,-159.1796875
6.70703125,-144.04296875,-31.25,-38.0859375,-219.23828125
6.7109375,-12.20703125,-33.69140625,-35.15625,38.0859375
6.71484375,83.49609375,-33.69140625,-36.1328125,173.33984375
6.71875,-38.57421875,-37.109375,-38.0859375,-69.82421875
6.72265625,-142.08984375,-36.1328125,-38.0859375,-245.1171875
6.7265625,-38.57421875,-33.203125,-36.62109375,-34.1796875
6.73046875,81.0546875,-38.0859375,-38.57421875,171.38671875
6.734375,-2.44140625,-40.0390625,-39.0625,2.44140625
6.73828125,-147.94921875,-40.0390625,-38.0859375,-241.69921875
6.7421875,-97.16796875,-40.0390625,-41.9921875,-128.90625
6.74609375,54.6875,-40.0390625,-41.9921875,131.34765625
6.75,43.9453125,-41.9921875,-41.9921875,76.171875
6.75390625,-103.515625,-37.59765625,-42.96875,-184.5703125
6.7578125,-115.234375,-35.64453125,-40.0390625,-167.48046875
6.76171875,20.99609375,-36.62109375,-37.59765625,109.86328125
6.765625,62.01171875,-33.203125,-35.15625,148.4375
6.76953125,-79.58984375,-32.71484375,-32.71484375,-122.55859375
6.7734375,-163.0859375,-36.62109375,-33.69140625,-222.65625
6.77734375,-45.41015625,-40.0390625,-32.2265625,21.97265625
6.78125,68.84765625,-35.64453125,-31.25,179.19921875
6.78515625,-39.0625,-34.66796875,-38.0859375,-44.43359375
6.7890625,-162.109375,-33.69140625,-38.57421875,-241.69921875
6.79296875,-60.546875,-33.203125,-32.2265625,-45.8984375
6.796875,75.1953125,-36.1328125,-34.66796875,172.8515625
6.80078125,3.41796875,-38.0859375,-37.59765625,28.3203125
6.8046875,-146.484375,-37.59765625,-35.15625,-219.7265625
6.80859375,-102.05078125,-31.25,-32.2265625,-125.0
6.8125,59.08203125,-29.296875,-28.80859375,163.57421875
6.81640625,62.5,-30.2734375,-29.78515625,123.53515625
6.8203125,-90.8203125,-29.296875,-34.66796875,-170.41015625
6.82421875,-124.0234375,-31.25,-37.109375,-195.3125
6.828125,20.01953125,-29.296875,-34.1796875,90.33203125
6.83203125,71.77734375,-27.83203125,-33.69140625,160.15625
6.8359375,-75.68359375,-31.25,-35.15625,-114.74609375
6.83984375,-160.15625,-33.203125,-36.1328125,-233.3984375
6.84375,-28.3203125,-31.73828125,-36.1328125,23.92578125
6.84765625,79.58984375,-33.203125,-39.55078125,191.40625
6.8515625,-32.2265625,-36.1328125,-41.50390625,-36.1328125
6.85546875,-167.96875,-34.1796875,-43.45703125,-259.765625
6.859375,-83.984375,-32.2265625,-42.96875,-87.890625
6.86328125,78.125,-31.25,-43.45703125,178.22265625
6.8671875,19.53125,-32.2265625,-44.921875,52.24609375
6.87109375,-139.16015625,-29.296875,-41.015625,-230.95703125
6.875,-108.88671875,-28.80859375,-34.66796875,-153.3203125
6.87890625,41.9921875,-33.69140625,-32.2265625,133.7890625
6.8828125,47.8515625,-34.66796875,-35.64453125,116.69921875
6.88671875,-98.6328125,-39.0625,-38.57421875,-168.45703125
6.890625,-133.7890625,-42.48046875,-36.1328125,-198.73046875
6.89453125,-3.90625,-41.015625,-32.2265625,76.66015625
6.8984375,56.15234375,-43.9453125,-32.71484375,146.97265625
6.90234375,-62.98828125,-48.33984375,-35.64453125,-104.00390625
6.90625,-144.04296875,-50.29296875,-37.59765625,-232.91015625
6.91015625,-42.48046875,-45.41015625,-34.1796875,-13.671875
6.9140625,73.73046875,-40.52734375,-25.390625,177.734375
6.91796875,-28.80859375,-48.828125,-27.34375,-15.13671875
6.921875,-164.55078125,-51.7578125,-35.15625,-242.1875
6.92578125,-85.44921875,-47.8515625,-32.71484375,-80.078125
6.9296875,65.91796875,-45.41015625,-35.15625,172.36328125
6.93359375,16.6015625,-44.921875,-40.52734375,55.17578125
6.9375,-136.23046875,-39.0625,-44.43359375,-218.26171875
6.94140625,-123.53515625,-36.1328125,-46.875,-168.9453125
6.9453125,21.97265625,-36.1328125,-46.875,104.4921875
6.94921875,43.45703125,-36.1328125,-46.38671875,103.02734375
6.953125,-104.4921875,-39.55078125,-48.33984375,-177.734375
6.95703125,-139.6484375,-37.59765625,-46.38671875,-226.5625
6.9609375,-6.34765625,-40.52734375,-42.96875,41.50390625
6.96484375,57.12890625,-37.59765625,-45.8984375,139.16015625
6.96875,-56.15234375,-31.73828125,-51.26953125,-97.16796875
6.97265625,-155.76171875,-37.59765625,-45.8984375,-262.20703125
6.9765625,-63.96484375,-38.0859375,-42.96875,-58.59375
6.98046875,62.5,-33.69140625,-43.45703125,155.76171875
6.984375,-21.484375,-39.55078125,-44.921875,-14.6484375
6.98828125,-158.69140625,-43.9453125,-49.8046875,-245.1171875
6.9921875,-104.98046875,-38.0859375,-46.875,-121.09375
6.99609375,60.546875,-37.59765625,-39.0625,152.83203125
7.0,37.109375,-36.62109375,-41.015625,89.84375
7.00390625,-119.62890625,-36.62109375,-36.62109375,-186.5234375
7.0078125,-119.140625,-42.48046875,-39.0625,-177.734375
7.01171875,11.23046875,-40.52734375,-42.96875,91.796875
7.015625,49.8046875,-41.015625,-41.50390625,144.04296875
7.01953125,-83.0078125,-43.45703125,-42.96875,-127.44140625
7.0234375,-146.97265625,-40.52734375,-44.43359375,-231.4453125
7.02734375,-18.06640625,-40.0390625,-39.55078125,15.625
7.03125,82.03125,-33.203125,-35.15625,165.0390625
7.03515625,-29.296875,-32.2265625,-39.0625,-60.546875
7.0390625,-138.671875,-34.1796875,-36.62109375,-244.62890625
7.04296875,-40.0390625,-31.73828125,-38.0859375,-56.640625
7.046875,87.890625,-31.73828125,-42.96875,161.1328125
7.05078125,26.85546875,-31.25,-43.45703125,30.2734375
7.0546875,-124.51171875,-39.55078125,-46.38671875,-222.16796875
7.05859375,-111.81640625,-41.9921875,-48.33984375,-150.87890625
7.0625,40.0390625,-41.50390625,-47.8515625,122.55859375
7.06640625,33.203125,-44.43359375,-48.828125,78.61328125
7.0703125,-111.328125,-37.59765625,-46.875,-196.77734375
7.07421875,-146.484375,-37.109375,-44.921875,-223.14453125
7.078125,-0.9765625,-42.48046875,-42.96875,61.5234375
7.08203125,66.89453125,-41.50390625,-41.50390625,154.78515625
7.0859375,-87.890625,-39.0625,-41.9921875,-122.0703125
7.08984375,-174.31640625,-42.96875,-43.9453125,-247.0703125
7.09375,-49.8046875,-41.9921875,-46.875,7.32421875
7.09765625,70.3125,-39.0625,-40.52734375,181.15234375
7.1015625,-39.55078125,-39.0625,-35.64453125,-42.96875
7.10546875,-164.55078125,-39.0625,-37.109375,-254.39453125
7.109375,-78.125,-41.015625,-38.0859375,-85.44921875
7.11328125,55.6640625,-38.57421875,-37.59765625,149.90234375
7.1171875,13.18359375,-38.0859375,-34.66796875,36.1328125
7.12109375,-132.32421875,-42.48046875,-33.203125,-229.00390625
7.125,-106.93359375,-39.0625,-33.203125,-154.296875
7.12890625,50.29296875,-39.0625,-33.203125,128.90625
7.1328125,38.0859375,-41.50390625,-37.109375,99.609375
7.13671875,-111.81640625,-38.57421875,-36.62109375,-183.59375
7.140625,-131.8359375,-42.48046875,-36.62109375,-211.9140625
7.14453125,22.4609375,-45.41015625,-39.55078125,78.61328125
7.1484375,89.35546875,-45.41015625,-39.55078125,170.8984375
7.15234375,-58.59375,-44.43359375,-38.57421875,-109.375
7.15625,-148.4375,-42.96875,-35.64453125,-247.0703125
7.16015625,-35.64453125,-41.015625,-35.64453125,-5.859375
7.1640625,94.7265625,-36.62109375,-33.69140625,195.3125
7.16796875,-6.34765625,-36.62109375,-33.203125,0.48828125
7.171875,-143.06640625,-38.0859375,-35.64453125,-231.93359375
7.17578125,-68.359375,-41.50390625,-33.203125,-75.68359375
7.1796875,72.265625,-42.96875,-35.64453125,177.734375
7.18359375,24.90234375,-44.43359375,-37.109375,65.4296875
7.1875,-131.8359375,-42.96875,-34.1796875,-202.1484375
7.19140625,-118.65234375,-36.62109375,-36.1328125,-156.73828125
7.1953125,35.15625,-37.109375,-27.34375,113.28125
7.19921875,38.0859375,-45.41015625,-25.390625,109.375
7.203125,-113.28125,-44.921875,-35.64453125,-168.9453125
7.20703125,-160.15625,-40.0390625,-35.64453125,-238.76953125
7.2109375,-27.83203125,-36.62109375,-34.1796875,29.78515625
7.21484375,59.5703125,-34.1796875,-35.15625,162.109375
7.21875,-60.546875,-33.203125,-33.203125,-78.61328125
7.22265625,-166.015625,-30.2734375,-33.69140625,-245.60546875
7.2265625,-64.94140625,-32.71484375,-37.59765625,-42.48046875
7.23046875,62.01171875,-34.1796875,-36.1328125,165.0390625
7.234375,-17.578125,-32.71484375,-30.76171875,-5.859375
7.23828125,-142.08984375,-32.71484375,-31.25,-226.5625
7.2421875,-92.28515625,-37.109375,-33.203125,-93.75
7.24609375,47.36328125,-38.57421875,-32.71484375,150.87890625
7.25,41.015625,-31.73828125,-34.1796875,76.66015625
7.25390625,-109.86328125,-30.2734375,-38.0859375,-192.3828125
7.2578125,-142.08984375,-35.64453125,-43.45703125,-182.12890625
7.26171875,11.23046875,-31.73828125,-40.52734375,91.30859375
7.265625,68.84765625,-22.4609375,-44.921875,120.60546875
7.26953125,-90.33203125,-21.97265625,-51.7578125,-169.921875
7.2734375,-149.4140625,-18.5546875,-48.33984375,-254.8828125
7.27734375,7.32421875,-14.6484375,-57.12890625,20.5078125
7.28125,92.28515625,-17.578125,-66.40625,155.76171875
7.28515625,-29.296875,-17.08984375,-68.359375,-84.9609375
7.2890625,-156.73828125,-22.94921875,-76.66015625,-278.3203125
7.29296875,-81.54296875,-18.5546875,-71.2890625,-95.21484375
7.296875,76.171875,-15.13671875,-65.4296875,126.46484375
7.30078125,15.625,-22.4609375,-71.2890625,-20.99609375
7.3046875,-134.765625,-28.80859375,-65.91796875,-257.32421875
7.30859375,-92.28515625,-28.80859375,-60.546875,-162.109375
7.3125,71.2890625,-29.296875,-60.546875,109.86328125
7.31640625,50.29296875,-33.69140625,-58.59375,62.5
7.3203125,-127.9296875,-32.71484375,-60.546875,-228.02734375
7.32421875,-148.92578125,-29.78515625,-58.59375,-229.4921875
7.328125,0.0,-28.80859375,-59.08203125,50.29296875
7.33203125,75.68359375,-28.80859375,-59.5703125,127.9296875
7.3359375,-69.3359375,-36.1328125,-62.5,-134.765625
7.33984375,-182.12890625,-41.50390625,-67.3828125,-264.6484375
7.34375,-28.3203125,-32.2265625,-55.6640625,9.27734375
7.34765625,92.7734375,-28.3203125,-48.828125,182.12890625
7.3515625,-26.3671875,-32.71484375,-47.8515625,-43.9453125
7.35546875,-143.5546875,-35.64453125,-55.17578125,-240.72265625
7.359375,-57.6171875,-35.15625,-55.6640625,-67.87109375
7.36328125,72.75390625,-33.203125,-47.36328125,167.96875
7.3671875,12.20703125,-33.69140625,-47.8515625,35.64453125
7.37109375,-114.74609375,-35.15625,-47.8515625,-215.8203125
7.375,-65.4296875,-31.73828125,-45.8984375,-122.0703125
7.37890625,73.73046875,-29.296875,-41.9921875,146.484375
7.3828125,62.5,-33.203125,-40.0390625,114.74609375
7.38671875,-101.5625,-36.62109375,-43.9453125,-174.31640625
7.390625,-137.6953125,-35.64453125,-45.41015625,-205.56640625
7.39453125,4.8828125,-34.66796875,-39.55078125,67.87109375
7.3984375,72.265625,-35.64453125,-39.0625,152.34375
7.40234375,-51.26953125,-36.1328125,-43.45703125,-100.09765625
7.40625,-137.6953125,-35.64453125,-43.9453125,-239.74609375
7.41015625,-28.80859375,-34.66796875,-42.48046875,-2.9296875
7.4140625,81.0546875,-34.66796875,-47.36328125,180.17578125
7.41796875,-21.97265625,-38.0859375,-47.8515625,-30.2734375
7.421875,-153.80859375,-38.57421875,-39.55078125,-240.72265625
7.42578125,-81.54296875,-33.203125,-37.109375,-77.63671875
7.4296875,61.5234375,-34.1796875,-35.64453125,167.48046875
7.43359375,15.13671875,-37.59765625,-33.69140625,54.19921875
7.4375,-149.4140625,-40.52734375,-40.52734375,-228.515625
7.44140625,-135.7421875,-43.9453125,-43.9453125,-183.59375
7.4453125,23.4375,-40.52734375,-38.0859375,92.7734375
7.44921875,50.78125,-39.55078125,-38.57421875,101.5625
7.453125,-91.30859375,-38.57421875,-40.0390625,-167.96875
7.45703125,-134.27734375,-40.0390625,-38.0859375,-226.5625
7.4609375,1.953125,-44.43359375,-37.59765625,38.57421875
7.46484375,89.84375,-41.015625,-37.59765625,173.33984375
7.46875,-39.0625,-43.9453125,-37.109375,-71.2890625
7.47265625,-149.4140625,-41.015625,-42.48046875,-252.9296875
7.4765625,-56.640625,-36.62109375,-49.31640625,-48.33984375
7.48046875,67.87109375,-33.69140625,-48.33984375,154.296875
7.484375,-2.44140625,-26.3671875,-51.7578125,-14.16015625
7.48828125,-146.97265625,-24.90234375,-53.7109375,-256.34765625
7.4921875,-104.98046875,-30.76171875,-54.19921875,-135.7421875
7.49609375,41.9921875,-32.71484375,-55.6640625,130.859375
7.5,18.06640625,-29.296875,-62.01171875,43.9453125
7.50390625,-132.8125,-31.73828125,-61.5234375,-231.4453125
7.5078125,-112.3046875,-33.203125,-55.6640625,-182.6171875
7.51171875,56.15234375,-29.78515625,-54.6875,109.375
7.515625,74.21875,-26.85546875,-54.19921875,127.44140625
7.51953125,-64.94140625,-30.76171875,-49.8046875,-137.20703125
7.5234375,-127.44140625,-31.73828125,-46.38671875,-216.30859375
7.52734375,-20.01953125,-29.78515625,-45.41015625,27.34375
7.53125,79.58984375,-32.71484375,-42.48046875,164.55078125
7.53515625,-42.96875,-36.62109375,-41.9921875,-75.1953125
7.5390625,-159.1796875,-36.62109375,-38.0859375,-251.46484375
7.54296875,-62.01171875,-33.203125,-39.55078125,-56.15234375
7.546875,71.77734375,-30.76171875,-39.0625,164.0625
7.55078125,0.48828125,-37.109375,-40.0390625,5.859375
7.5546875,-145.99609375,-39.55078125,-42.48046875,-248.53515625
7.55859375,-98.14453125,-35.64453125,-45.41015625,-134.765625
7.5625,53.22265625,-36.62109375,-46.875,134.27734375
7.56640625,45.8984375,-31.73828125,-40.52734375,81.0546875
7.5703125,-101.5625,-33.203125,-40.52734375,-191.89453125
7.57421875,-125.0,-37.59765625,-40.52734375,-199.70703125
7.578125,17.08984375,-35.15625,-38.57421875,71.2890625
7.58203125,80.078125,-30.2734375,-37.59765625,140.13671875
7.5859375,-57.6171875,-29.78515625,-41.9921875,-129.8828125
7.58984375,-149.90234375,-32.71484375,-45.41015625,-248.53515625
7.59375,-17.578125,-29.78515625,-40.52734375,7.32421875
7.59765625,105.95703125,-25.390625,-39.0625,181.15234375
7.6015625,3.90625,-30.2734375,-40.0390625,-23.92578125
7.60546875,-131.34765625,-36.62109375,-39.0625,-236.328125
7.609375,-49.31640625,-34.66796875,-33.69140625,-57.6171875
7.61328125,106.4453125,-29.78515625,-33.203125,209.9609375
7.6171875,22.94921875,-35.15625,-37.59765625,69.3359375
7.62109375,-145.01953125,-36.1328125,-38.0859375,-217.7734375
7.625,-97.16796875,-34.1796875,-37.59765625,-124.0234375
7.62890625,59.5703125,-38.57421875,-32.71484375,148.4375
7.6328125,65.4296875,-36.62109375,-29.296875,116.69921875
7.63671875,-99.609375,-33.69140625,-27.83203125,-168.45703125
7.640625,-135.7421875,-35.15625,-30.2734375,-193.84765625
7.64453125,8.7890625,-39.0625,-32.71484375,77.63671875
7.6484375,61.5234375,-37.109375,-33.203125,141.6015625
7.65234375,-60.05859375,-31.73828125,-29.78515625,-107.421875
7.65625,-143.5546875,-31.25,-34.66796875,-231.93359375
7.66015625,-33.203125,-29.78515625,-37.109375,-3.41796875
7.6640625,81.0546875,-30.2734375,-36.62109375,169.43359375
7.66796875,-40.0390625,-38.0859375,-43.45703125,-49.8046875
7.671875,-178.22265625,-38.57421875,-39.55078125,-269.04296875
7.67578125,-95.21484375,-33.203125,-40.0390625,-107.91015625
7.6796875,50.29296875,-36.1328125,-42.48046875,143.06640625
7.68359375,12.20703125,-35.64453125,-40.0390625,44.43359375
7.6875,-139.6484375,-34.1796875,-42.48046875,-228.515625
7.69140625,-134.27734375,-38.57421875,-45.41015625,-180.17578125
7.6953125,22.4609375,-42.48046875,-47.36328125,107.421875
7.69921875,57.12890625,-39.0625,-42.96875,114.2578125
7.703125,-100.09765625,-41.9921875,-40.52734375,-177.734375
7.70703125,-142.578125,-44.921875,-40.0390625,-224.12109375
7.7109375,11.23046875,-41.9921875,-38.0859375,58.59375
7.71484375,85.44921875,-40.0390625,-35.64453125,148.4375
7.71875,-27.34375,-37.109375,-36.1328125,-79.1015625
7.72265625,-138.18359375,-38.0859375,-44.921875,-215.8203125
7.7265625,-46.875,-38.0859375,-50.78125,-22.94921875
7.73046875,82.03125,-36.62109375,-44.43359375,166.50390625
7.734375,2.44140625,-39.0625,-39.0625,-1.46484375
7.73828125,-150.390625,-40.52734375,-48.33984375,-239.74609375
7.7421875,-106.93359375,-41.015625,-52.24609375,-113.28125
7.74609375,55.6640625,-37.59765625,-42.48046875,151.3671875
7.75,38.57421875,-37.59765625,-37.59765625,70.80078125
7.75390625,-114.2578125,-36.1328125,-40.52734375,-205.56640625
7.7578125,-115.234375,-39.0625,-35.64453125,-173.828125
7.76171875,22.4609375,-39.55078125,-30.2734375,93.26171875
7.765625,53.22265625,-38.0859375,-35.15625,111.328125
7.76953125,-89.84375,-38.0859375,-41.9921875,-156.25
7.7734375,-151.85546875,-36.62109375,-44.921875,-237.3046875
7.77734375,-1.953125,-35.15625,-44.43359375,39.0625
7.78125,110.3515625,-32.2265625,-40.0390625,191.89453125
7.78515625,-34.66796875,-37.109375,-34.1796875,-56.640625
7.7890625,-177.24609375,-42.96875,-31.73828125,-261.23046875
7.79296875,-89.35546875,-41.9921875,-27.83203125,-66.89453125
7.796875,53.22265625,-45.41015625,-19.53125,162.59765625
7.80078125,-12.6953125,-48.828125,-22.94921875,10.25390625
7.8046875,-153.80859375,-53.7109375,-23.4375,-237.3046875
7.80859375,-114.2578125,-55.17578125,-20.99609375,-142.08984375
7.8125,27.83203125,-52.24609375,-23.4375,122.0703125
7.81640625,13.671875,-47.8515625,-19.04296875,69.82421875
7.8203125,-139.16015625,-45.8984375,-18.06640625,-206.0546875
7.82421875,-148.4375,-49.8046875,-24.90234375,-188.4765625
7.828125,19.53125,-44.921875,-26.3671875,112.3046875
7.83203125,81.54296875,-40.52734375,-22.4609375,166.9921875
7.8359375,-74.21875,-45.41015625,-23.92578125,-116.2109375
7.83984375,-133.30078125,-44.921875,-20.01953125,-202.63671875
7.84375,8.7890625,-41.015625,-19.04296875,59.5703125
7.84765625,91.30859375,-41.9921875,-24.4140625,198.2421875
7.8515625,-28.3203125,-39.55078125,-24.90234375,-27.34375
7.85546875,-164.55078125,-40.52734375,-25.87890625,-230.95703125
7.859375,-83.984375,-43.45703125,-29.78515625,-54.6875
7.86328125,57.6171875,-41.50390625,-27.83203125,176.7578125
7.8671875,0.9765625,-41.50390625,-25.390625,46.875
7.87109375,-141.6015625,-43.9453125,-26.85546875,-205.56640625
7.875,-107.91015625,-42.96875,-30.76171875,-125.48828125
7.87890625,44.921875,-40.52734375,-30.2734375,141.11328125
7.8828125,48.33984375,-41.50390625,-29.78515625,108.3984375
7.88671875,-110.3515625,-40.52734375,-32.2265625,-176.7578125
7.890625,-136.23046875,-36.1328125,-33.69140625,-206.54296875
7.89453125,26.3671875,-37.109375,-32.2265625,84.47265625
7.8984375,82.03125,-43.9453125,-34.1796875,159.1796875
7.90234375,-74.21875,-47.36328125,-41.50390625,-123.53515625
7.90625,-157.2265625,-43.45703125,-35.15625,-250.48828125
7.91015625,-41.50390625,-44.43359375,-34.66796875,-19.04296875
7.9140625,65.4296875,-46.38671875,-36.1328125,152.34375
7.91796875,-30.2734375,-43.45703125,-30.2734375,-41.015625
7.921875,-143.5546875,-42.96875,-31.25,-242.67578125
7.92578125,-62.98828125,-42.96875,-36.1328125,-74.21875
7.9296875,82.03125,-36.1328125,-35.15625,173.33984375
7.93359375,40.52734375,-37.109375,-35.15625,74.21875
7.9375,-111.328125,-40.52734375,-36.62109375,-179.19921875
7.94140625,-96.6796875,-39.0625,-29.296875,-118.65234375
7.9453125,41.015625,-39.55078125,-29.78515625,142.578125
7.94921875,38.0859375,-36.62109375,-32.2265625,113.76953125
7.953125,-111.81640625,-38.57421875,-34.1796875,-171.875
7.95703125,-141.6015625,-42.48046875,-35.64453125,-209.47265625
7.9609375,6.34765625,-38.0859375,-35.15625,67.3828125
7.96484375,82.03125,-29.78515625,-38.57421875,171.875
7.96875,-56.15234375,-30.76171875,-41.015625,-85.9375
7.97265625,-156.25,-35.15625,-38.57421875,-235.3515625
7.9765625,-50.29296875,-39.55078125,-36.1328125,-13.18359375
7.98046875,61.5234375,-41.9921875,-40.52734375,178.22265625
7.984375,-15.13671875,-39.55078125,-41.9921875,0.9765625
7.98828125,-127.9296875,-41.015625,-37.59765625,-217.7734375
7.9921875,-78.125,-47.36328125,-40.0390625,-100.09765625
7.99609375,50.78125,-44.921875,-44.43359375,138.671875
8.0,30.2734375,-36.1328125,-41.9921875,68.84765625
8.00390625,-109.86328125,-36.1328125,-39.0625,-188.4765625
8.0078125,-109.86328125,-38.57421875,-41.9921875,-150.87890625
8.01171875,39.55078125,-35.64453125,-39.0625,119.140625
8.015625,74.21875,-35.64453125,-38.57421875,144.04296875
8.01953125,-80.56640625,-35.64453125,-41.015625,-134.765625
8.0234375,-127.44140625,-35.15625,-41.015625,-196.77734375
8.02734375,24.90234375,-36.1328125,-36.1328125,75.68359375
8.03125,77.63671875,-38.57421875,-30.76171875,171.875
8.03515625,-61.5234375,-43.45703125,-30.2734375,-69.82421875
8.0390625,-161.62109375,-50.78125,-28.80859375,-222.65625
8.04296875,-71.77734375,-46.875,-21.484375,-23.92578125
8.046875,59.5703125,-46.875,-19.53125,185.546875
8.05078125,-16.6015625,-49.31640625,-20.5078125,20.5078125
8.0546875,-150.390625,-41.50390625,-20.5078125,-225.5859375
8.05859375,-110.83984375,-43.45703125,-25.390625,-108.3984375
