Timestamp,TP9,AF7,AF8,TP10
0.00390625,-2.9296875,-11.71875,-9.27734375,-9.765625
0.0078125,-2.44140625,-16.11328125,-15.625,-18.06640625
0.01171875,-8.30078125,-18.5546875,-23.92578125,-19.53125
0.015625,-14.16015625,-22.94921875,-43.45703125,-12.20703125
0.01953125,-4.39453125,-18.5546875,-33.69140625,-4.8828125
0.0234375,2.9296875,-7.8125,-16.6015625,1.953125
0.02734375,-10.25390625,-16.11328125,-25.87890625,-5.37109375
0.03125,-31.25,-23.4375,-29.296875,-24.4140625
0.03515625,-37.109375,-19.53125,-25.390625,-29.78515625
0.0390625,-39.0625,-20.99609375,-15.13671875,-35.15625
0.04296875,-37.59765625,-22.4609375,-9.27734375,-35.64453125
0.046875,-37.109375,-25.390625,-21.97265625,-36.62109375
0.05078125,-48.828125,-29.296875,-20.01953125,-38.57421875
0.0546875,-33.203125,-20.01953125,1.953125,-32.71484375
0.05859375,-26.3671875,-23.92578125,-9.27734375,-33.69140625
0.0625,-29.296875,-35.64453125,-20.01953125,-21.484375
0.06640625,-24.90234375,-34.66796875,-21.97265625,-17.08984375
0.0703125,-24.4140625,-23.92578125,-21.484375,-13.18359375
0.07421875,-16.11328125,-14.6484375,-10.7421875,1.953125
0.078125,-19.04296875,-23.92578125,-19.53125,-12.20703125
0.08203125,-26.85546875,-28.80859375,-24.4140625,-20.99609375
0.0859375,-20.5078125,-21.484375,-29.296875,-18.06640625
0.08984375,-13.671875,-23.4375,-34.1796875,-24.90234375
0.09375,-12.20703125,-22.94921875,-30.2734375,-17.578125
0.09765625,-23.92578125,-27.34375,-28.80859375,-19.53125
0.1015625,-35.15625,-29.78515625,-31.73828125,-29.78515625
0.10546875,-27.83203125,-20.01953125,-34.66796875,-22.94921875
0.109375,-15.13671875,-15.13671875,-26.85546875,-8.30078125
0.11328125,3.90625,-12.20703125,-21.484375,1.953125
0.1171875,-7.32421875,-13.671875,-26.85546875,-9.765625
0.12109375,-14.6484375,-22.94921875,-32.2265625,-25.390625
0.125,-7.8125,-22.4609375,-28.3203125,-15.625
0.12890625,-28.3203125,-21.484375,-24.4140625,-10.7421875
0.1328125,-29.296875,-28.80859375,-26.3671875,-11.71875
0.13671875,-30.2734375,-31.25,-36.1328125,-16.6015625
0.140625,-31.25,-24.90234375,-38.0859375,-21.484375
0.14453125,-24.4140625,-22.94921875,-22.4609375,-32.2265625
0.1484375,-21.97265625,-22.4609375,-9.765625,-26.85546875
0.15234375,-15.13671875,-16.6015625,-18.06640625,-7.32421875
0.15625,-14.16015625,-20.99609375,-19.53125,-9.27734375
0.16015625,-19.53125,-28.3203125,-6.8359375,-9.765625
0.1640625,-2.9296875,-19.04296875,2.44140625,-1.953125
0.16796875,5.859375,-17.578125,-6.8359375,-5.37109375
0.171875,-17.08984375,-27.83203125,-24.4140625,-17.578125
0.17578125,-26.85546875,-24.90234375,-24.90234375,-21.484375
0.1796875,-20.99609375,-26.85546875,-21.97265625,-24.4140625
0.18359375,-17.578125,-35.15625,-33.69140625,-36.1328125
0.1875,-38.0859375,-34.66796875,-31.73828125,-40.0390625
0.19140625,-45.41015625,-31.25,-20.5078125,-41.50390625
0.1953125,-26.3671875,-27.34375,-19.04296875,-29.296875
0.19921875,-28.80859375,-23.92578125,-17.578125,-20.99609375
0.203125,-19.04296875,-20.01953125,-21.97265625,-16.6015625
0.20703125,-14.6484375,-21.484375,-16.6015625,-7.32421875
0.2109375,-7.8125,-23.92578125,-4.8828125,-9.765625
0.21484375,3.41796875,-18.5546875,-5.859375,7.8125
0.21875,-4.8828125,-16.11328125,-5.37109375,7.8125
0.22265625,-14.16015625,-20.99609375,-10.25390625,-5.37109375
0.2265625,-14.6484375,-29.296875,-30.2734375,-4.8828125
0.23046875,-5.859375,-29.78515625,-28.3203125,-8.30078125
0.234375,-3.90625,-21.97265625,-11.23046875,-11.23046875
0.23828125,-15.13671875,-19.04296875,-8.30078125,-5.859375
0.2421875,-7.8125,-18.5546875,-5.859375,1.46484375
0.24609375,3.41796875,-19.53125,-10.7421875,4.39453125
0.25,-13.671875,-24.4140625,-23.4375,-13.671875
0.25390625,-20.5078125,-25.87890625,-19.04296875,-19.53125
0.2578125,-13.18359375,-26.85546875,-15.13671875,-8.30078125
0.26171875,-7.8125,-24.90234375,-22.94921875,0.0
0.265625,-11.23046875,-26.3671875,-20.5078125,-7.8125
0.26953125,-13.18359375,-24.90234375,-12.6953125,-13.18359375
0.2734375,-12.20703125,-14.6484375,-14.16015625,-16.6015625
0.27734375,-26.3671875,-21.97265625,-18.06640625,-28.3203125
0.28125,-31.25,-33.203125,-17.08984375,-32.71484375
0.28515625,-38.57421875,-31.25,-20.01953125,-28.80859375
0.2890625,-44.921875,-20.01953125,-22.4609375,-31.73828125
0.29296875,-36.1328125,-13.671875,-22.94921875,-29.296875
0.296875,-28.3203125,-18.5546875,-26.3671875,-29.296875
0.30078125,-41.50390625,-28.3203125,-18.5546875,-43.9453125
0.3046875,-46.875,-29.296875,-13.671875,-42.96875
0.30859375,-41.50390625,-26.85546875,-17.08984375,-24.4140625
0.3125,-52.734375,-30.2734375,-23.92578125,-15.625
0.31640625,-53.22265625,-27.34375,-19.53125,-14.6484375
0.3203125,-30.2734375,-22.4609375,-16.11328125,-3.90625
0.32421875,-32.2265625,-31.73828125,-37.109375,-19.04296875
0.328125,-41.9921875,-36.1328125,-41.9921875,-29.296875
0.33203125,-34.66796875,-30.76171875,-24.90234375,-20.5078125
0.3359375,-34.66796875,-29.296875,-16.6015625,-14.16015625
0.33984375,-31.73828125,-22.94921875,-17.578125,-26.3671875
0.34375,-21.97265625,-12.6953125,-14.6484375,-9.27734375
0.34765625,0.9765625,-6.8359375,-16.6015625,24.4140625
0.3515625,-11.23046875,-12.6953125,-34.1796875,-15.13671875
0.35546875,-37.59765625,-26.85546875,-28.3203125,-38.57421875
0.359375,-17.578125,-33.203125,-17.08984375,-32.2265625
0.36328125,-14.6484375,-29.296875,-17.08984375,-32.2265625
0.3671875,-17.08984375,-25.87890625,-15.625,-13.18359375
0.37109375,-5.37109375,-25.390625,-22.94921875,-13.18359375
0.375,-2.44140625,-20.99609375,-22.4609375,-18.06640625
0.37890625,-12.6953125,-15.625,-13.671875,-12.6953125
0.3828125,-18.5546875,-21.97265625,-24.4140625,-13.18359375
0.38671875,-20.99609375,-27.83203125,-26.85546875,-24.90234375
0.390625,-12.20703125,-19.04296875,-20.99609375,-22.4609375
0.39453125,-4.39453125,-5.37109375,-24.90234375,0.9765625
0.3984375,-14.16015625,-12.6953125,-34.66796875,2.44140625
0.40234375,-15.13671875,-32.2265625,-38.57421875,-0.9765625
0.40625,-30.76171875,-33.69140625,-26.85546875,-0.48828125
0.41015625,-27.83203125,-22.94921875,-26.3671875,-3.41796875
0.4140625,-14.16015625,-22.4609375,-25.87890625,-16.11328125
0.41796875,-22.94921875,-23.92578125,-18.5546875,-21.484375
0.421875,-34.66796875,-20.01953125,-18.06640625,-18.06640625
0.42578125,-50.29296875,-26.85546875,-20.01953125,-33.69140625
0.4296875,-45.8984375,-29.78515625,-21.97265625,-40.0390625
0.43359375,-40.0390625,-23.4375,-14.16015625,-27.83203125
0.4375,-33.69140625,-22.94921875,-20.01953125,-31.73828125
0.44140625,-20.01953125,-20.5078125,-26.85546875,-36.1328125
0.4453125,-20.01953125,-14.6484375,-24.4140625,-28.80859375
0.44921875,-36.62109375,-26.85546875,-32.71484375,-34.66796875
0.453125,-36.1328125,-34.1796875,-32.2265625,-43.45703125
0.45703125,-19.04296875,-20.99609375,-28.3203125,-34.1796875
0.4609375,-22.94921875,-20.99609375,-34.66796875,-20.99609375
0.46484375,-45.8984375,-28.80859375,-25.390625,-25.390625
0.46875,-28.3203125,-27.34375,-22.4609375,-27.83203125
0.47265625,-12.20703125,-23.4375,-39.0625,-31.25
0.4765625,-20.5078125,-26.85546875,-31.25,-31.73828125
0.48046875,-9.27734375,-27.83203125,-22.94921875,-24.4140625
0.484375,-2.44140625,-27.34375,-28.80859375,-24.90234375
0.48828125,-12.20703125,-26.85546875,-26.85546875,-30.2734375
0.4921875,-24.90234375,-20.01953125,-25.390625,-17.08984375
0.49609375,-15.625,-15.625,-18.06640625,-12.20703125
0.5,-13.671875,-16.11328125,-9.765625,-20.5078125
0.50390625,-23.92578125,-21.97265625,-16.6015625,-19.04296875
0.5078125,-15.625,-27.34375,-19.53125,-23.92578125
0.51171875,-20.01953125,-25.390625,-15.625,-25.87890625
0.515625,-33.69140625,-27.34375,-19.04296875,-26.3671875
0.51953125,-35.64453125,-30.2734375,-27.34375,-30.2734375
0.5234375,-28.3203125,-23.92578125,-35.15625,-20.99609375
0.52734375,-28.80859375,-16.6015625,-28.80859375,-11.23046875
0.53125,-22.4609375,-25.87890625,-20.5078125,-16.6015625
0.53515625,-22.94921875,-32.71484375,-19.04296875,-28.3203125
0.5390625,-27.34375,-26.3671875,-10.7421875,-32.71484375
0.54296875,-20.01953125,-25.87890625,-17.578125,-22.94921875
0.546875,-13.18359375,-22.4609375,-20.5078125,-15.13671875
0.55078125,-16.6015625,-25.87890625,-20.5078125,-25.390625
0.5546875,-34.1796875,-31.25,-31.73828125,-31.73828125
0.55859375,-24.4140625,-31.73828125,-30.76171875,-31.73828125
0.5625,-7.8125,-32.2265625,-14.6484375,-26.85546875
0.56640625,-23.92578125,-31.73828125,-13.671875,-22.94921875
0.5703125,-37.59765625,-27.83203125,-24.90234375,-24.4140625
0.57421875,-39.55078125,-25.87890625,-24.4140625,-12.6953125
0.578125,-29.78515625,-28.3203125,-28.3203125,-9.765625
0.58203125,-16.11328125,-25.87890625,-32.2265625,-17.578125
0.5859375,-20.01953125,-22.94921875,-25.390625,-29.78515625
0.58984375,-27.34375,-25.87890625,-16.11328125,-26.85546875
0.59375,-20.5078125,-24.4140625,-11.23046875,-14.16015625
0.59765625,-18.06640625,-23.92578125,-12.6953125,-15.625
0.6015625,-32.2265625,-27.34375,-21.97265625,-20.99609375
0.60546875,-27.83203125,-19.53125,-20.99609375,-14.16015625
0.609375,-2.9296875,-14.16015625,-16.11328125,-6.34765625
0.61328125,9.27734375,-18.06640625,-12.6953125,-6.34765625
0.6171875,0.9765625,-20.01953125,-17.08984375,-16.11328125
0.62109375,-20.99609375,-26.85546875,-14.16015625,-22.4609375
0.625,-35.64453125,-37.109375,-11.23046875,-22.4609375
0.62890625,-44.43359375,-38.57421875,-27.34375,-32.2265625
0.6328125,-42.96875,-34.1796875,-35.64453125,-38.0859375
0.63671875,-34.66796875,-24.4140625,-14.16015625,-22.4609375
0.640625,-22.94921875,-24.4140625,-10.7421875,-17.578125
0.64453125,-32.71484375,-29.78515625,-27.34375,-35.64453125
0.6484375,-37.59765625,-28.80859375,-25.390625,-37.59765625
0.65234375,-20.99609375,-28.80859375,-32.2265625,-36.62109375
0.65625,-31.73828125,-28.80859375,-29.296875,-34.1796875
0.66015625,-19.53125,-23.92578125,-20.99609375,-36.62109375
0.6640625,-19.53125,-25.87890625,-34.1796875,-41.50390625
0.66796875,-31.25,-29.78515625,-46.38671875,-30.76171875
0.671875,-26.85546875,-23.4375,-44.921875,-29.296875
0.67578125,-31.73828125,-19.04296875,-29.296875,-45.8984375
0.6796875,-30.2734375,-20.01953125,-22.4609375,-47.36328125
0.68359375,-37.109375,-28.80859375,-24.90234375,-47.8515625
0.6875,-57.6171875,-30.76171875,-20.01953125,-52.734375
0.69140625,-45.8984375,-27.83203125,-14.6484375,-41.50390625
0.6953125,-33.69140625,-25.87890625,-20.99609375,-32.2265625
0.69921875,-38.57421875,-28.80859375,-27.83203125,-20.01953125
0.703125,-21.484375,-30.2734375,-25.87890625,-11.23046875
0.70703125,-14.16015625,-37.109375,-32.71484375,-9.765625
0.7109375,-13.18359375,-29.296875,-35.64453125,1.953125
0.71484375,8.30078125,-5.859375,-16.11328125,11.71875
0.71875,2.44140625,-19.04296875,-13.18359375,6.34765625
0.72265625,-11.71875,-27.83203125,-18.06640625,-9.27734375
0.7265625,-7.8125,-29.296875,-16.6015625,-14.6484375
0.73046875,-1.46484375,-30.2734375,-25.390625,-12.6953125
0.734375,-13.18359375,-23.92578125,-30.2734375,-22.4609375
0.73828125,-24.4140625,-23.92578125,-29.78515625,-20.01953125
0.7421875,-3.41796875,-19.04296875,-26.3671875,-28.3203125
0.74609375,8.7890625,-17.578125,-28.3203125,-22.94921875
0.75,-7.32421875,-23.4375,-38.57421875,-21.484375
0.75390625,-5.37109375,-31.25,-40.52734375,-37.109375
0.7578125,5.859375,-27.34375,-31.25,-22.4609375
0.76171875,0.9765625,-26.85546875,-23.4375,-19.04296875
0.765625,-4.39453125,-29.78515625,-25.390625,-27.34375
0.76953125,-29.78515625,-24.4140625,-15.13671875,-16.6015625
0.7734375,-52.734375,-29.296875,-17.08984375,-21.484375
0.77734375,-57.6171875,-35.15625,-26.3671875,-22.4609375
0.78125,-56.640625,-33.69140625,-23.92578125,-30.2734375
0.78515625,-46.38671875,-31.73828125,-22.94921875,-26.85546875
0.7890625,-45.41015625,-28.3203125,-23.92578125,-22.94921875
0.79296875,-51.7578125,-30.2734375,-24.90234375,-30.76171875
0.796875,-48.828125,-34.1796875,-29.78515625,-31.73828125
0.80078125,-48.828125,-30.2734375,-26.3671875,-31.25
0.8046875,-62.01171875,-24.4140625,-19.53125,-25.87890625
0.80859375,-52.24609375,-21.484375,-23.4375,-17.08984375
0.8125,-36.62109375,-25.390625,-18.5546875,-16.11328125
0.81640625,-32.71484375,-34.66796875,-17.578125,-23.4375
0.8203125,-33.69140625,-31.73828125,-23.4375,-20.01953125
0.82421875,-29.296875,-31.25,-30.76171875,-27.83203125
0.828125,-20.99609375,-25.87890625,-23.4375,-36.62109375
0.83203125,-24.90234375,-18.5546875,-14.16015625,-33.203125
0.8359375,-19.53125,-16.6015625,-28.3203125,-37.59765625
0.83984375,-12.20703125,-14.16015625,-29.78515625,-37.59765625
0.84375,-6.34765625,-8.7890625,-20.99609375,-17.08984375
0.84765625,-12.6953125,-3.41796875,-26.3671875,-22.94921875
0.8515625,-29.78515625,-14.16015625,-37.109375,-54.6875
0.85546875,-36.1328125,-21.97265625,-38.0859375,-52.734375
0.859375,-40.0390625,-21.484375,-29.78515625,-57.6171875
0.86328125,-36.62109375,-17.08984375,-24.90234375,-53.22265625
0.8671875,-41.50390625,-14.16015625,-29.78515625,-50.78125
0.87109375,-67.87109375,-17.578125,-29.78515625,-76.171875
0.875,-83.984375,-14.16015625,-17.08984375,-94.23828125
0.87890625,-80.56640625,-12.6953125,-5.859375,-84.9609375
0.8828125,-72.265625,-15.625,-6.34765625,-83.49609375
0.88671875,-95.703125,-19.53125,-4.8828125,-97.16796875
0.890625,-141.6015625,-20.99609375,-0.9765625,-101.5625
0.89453125,-143.06640625,-11.23046875,-1.953125,-112.3046875
0.8984375,-136.71875,-18.5546875,-3.41796875,-122.0703125
0.90234375,-156.73828125,-25.87890625,-0.9765625,-133.30078125
0.90625,-158.69140625,-23.92578125,0.0,-149.4140625
0.91015625,-177.734375,-27.34375,-5.37109375,-155.2734375
0.9140625,-173.33984375,-26.85546875,-7.32421875,-156.25
0.91796875,-155.2734375,-22.4609375,-13.18359375,-158.69140625
0.921875,-151.3671875,-16.6015625,-23.4375,-146.484375
0.92578125,-150.87890625,-13.671875,-26.3671875,-135.25390625
0.9296875,-135.25390625,-12.20703125,-24.4140625,-140.625
0.93359375,-108.88671875,-8.7890625,-25.87890625,-123.53515625
0.9375,-102.05078125,-7.8125,-27.83203125,-102.5390625
0.94140625,-106.4453125,-9.27734375,-17.08984375,-96.19140625
0.9453125,-100.5859375,-18.5546875,-22.94921875,-90.33203125
0.94921875,-83.49609375,-16.6015625,-37.59765625,-83.0078125
0.953125,-73.73046875,-7.32421875,-44.921875,-77.63671875
0.95703125,-57.6171875,-7.8125,-38.0859375,-72.75390625
0.9609375,-45.8984375,-11.23046875,-29.296875,-65.4296875
0.96484375,-42.96875,-18.06640625,-27.83203125,-56.640625
0.96875,-39.0625,-22.4609375,-21.484375,-51.26953125
0.97265625,-17.578125,-20.5078125,-17.08984375,-32.71484375
0.9765625,-12.6953125,-16.6015625,-33.69140625,-15.625
0.98046875,-12.6953125,-22.4609375,-38.57421875,-23.4375
0.984375,-3.90625,-26.85546875,-19.04296875,-22.4609375
0.98828125,-15.625,-33.203125,-15.625,-16.11328125
0.9921875,-8.30078125,-40.52734375,-23.4375,1.953125
0.99609375,6.34765625,-40.0390625,-25.87890625,9.27734375
1.0,18.5546875,-31.73828125,-15.625,0.48828125
1.00390625,8.7890625,-27.34375,-3.41796875,1.46484375
1.0078125,6.8359375,-25.390625,-6.34765625,14.16015625
1.01171875,0.9765625,-26.85546875,-17.578125,15.13671875
1.015625,-8.7890625,-35.15625,-22.94921875,10.25390625
1.01953125,3.90625,-32.2265625,-20.99609375,12.20703125
1.0234375,4.39453125,-28.3203125,-24.4140625,16.11328125
1.02734375,-23.92578125,-26.85546875,-28.3203125,20.5078125
1.03125,-8.7890625,-25.87890625,-32.2265625,4.8828125
1.03515625,21.97265625,-18.5546875,-30.76171875,0.0
1.0390625,25.87890625,-14.16015625,-24.90234375,1.953125
1.04296875,25.87890625,-19.53125,-24.4140625,-0.9765625
1.046875,28.3203125,-19.04296875,-17.08984375,12.6953125
1.05078125,25.390625,-10.25390625,-8.7890625,19.04296875
1.0546875,11.23046875,-13.18359375,-16.11328125,16.6015625
1.05859375,14.16015625,-26.85546875,-23.4375,14.6484375
1.0625,24.4140625,-22.4609375,-11.23046875,14.6484375
1.06640625,8.7890625,-19.53125,-4.8828125,6.34765625
1.0703125,-6.34765625,-28.80859375,-12.20703125,-8.7890625
1.07421875,3.41796875,-27.83203125,-14.6484375,-7.32421875
1.078125,18.06640625,-20.99609375,-18.06640625,2.9296875
1.08203125,17.08984375,-22.94921875,-16.6015625,-2.44140625
1.0859375,15.625,-21.484375,-16.11328125,-1.46484375
1.08984375,9.27734375,-21.484375,-16.6015625,1.953125
1.09375,6.34765625,-26.3671875,-17.08984375,7.32421875
1.09765625,10.25390625,-25.390625,-14.16015625,19.04296875
1.1015625,6.34765625,-30.2734375,-18.5546875,6.34765625
1.10546875,5.859375,-32.2265625,-19.04296875,-0.48828125
1.109375,2.44140625,-29.296875,-20.99609375,10.7421875
1.11328125,25.87890625,-26.85546875,-29.78515625,14.16015625
1.1171875,42.48046875,-26.3671875,-23.92578125,12.20703125
1.12109375,31.25,-29.78515625,-13.671875,20.5078125
1.125,24.4140625,-27.83203125,-11.71875,11.23046875
1.12890625,17.08984375,-16.6015625,-6.34765625,13.671875
1.1328125,19.04296875,-14.16015625,-13.671875,18.5546875
1.13671875,20.99609375,-20.01953125,-26.85546875,12.20703125
1.140625,10.25390625,-19.04296875,-21.97265625,15.13671875
1.14453125,16.6015625,-8.7890625,-6.34765625,11.23046875
1.1484375,3.90625,-13.671875,-7.32421875,0.9765625
1.15234375,-30.2734375,-28.80859375,-20.01953125,-4.8828125
1.15625,-26.3671875,-27.83203125,-20.01953125,-4.8828125
1.16015625,-4.8828125,-27.83203125,-17.08984375,-5.859375
1.1640625,-10.7421875,-29.78515625,-17.08984375,-11.23046875
1.16796875,-16.6015625,-31.25,-13.671875,-16.6015625
1.171875,-16.6015625,-30.76171875,-20.01953125,-12.6953125
1.17578125,-10.25390625,-23.4375,-25.87890625,-4.39453125
1.1796875,-1.953125,-22.94921875,-18.06640625,-6.34765625
1.18359375,-8.30078125,-35.15625,-17.08984375,-11.71875
1.1875,-5.859375,-38.0859375,-14.16015625,-17.08984375
1.19140625,-7.8125,-32.2265625,-6.34765625,-19.04296875
1.1953125,-2.9296875,-27.83203125,-12.6953125,-5.859375
1.19921875,1.46484375,-30.2734375,-17.08984375,-2.9296875
1.203125,3.41796875,-30.2734375,-18.5546875,-0.9765625
1.20703125,13.18359375,-18.5546875,-18.06640625,8.30078125
1.2109375,9.765625,-19.04296875,-12.6953125,-3.41796875
1.21484375,-3.41796875,-27.83203125,-20.5078125,-9.27734375
1.21875,-2.44140625,-30.2734375,-27.34375,-9.765625
1.22265625,-2.9296875,-31.73828125,-20.99609375,-12.6953125
1.2265625,-4.39453125,-30.76171875,-10.25390625,-15.13671875
1.23046875,-9.27734375,-29.296875,-4.8828125,-0.48828125
1.234375,-16.11328125,-35.64453125,-12.6953125,3.41796875
1.23828125,-9.27734375,-36.1328125,-26.3671875,-11.71875
1.2421875,-13.18359375,-33.203125,-27.34375,-14.16015625
1.24609375,-21.97265625,-34.1796875,-32.71484375,-12.6953125
1.25,-15.625,-28.3203125,-31.25,-11.23046875
1.25390625,-2.44140625,-22.4609375,-22.4609375,-2.9296875
1.2578125,0.48828125,-21.484375,-10.25390625,-6.8359375
1.26171875,1.953125,-19.04296875,-9.27734375,-13.671875
1.265625,0.48828125,-15.625,-20.5078125,-7.8125
1.26953125,-2.44140625,-15.13671875,-12.6953125,-10.25390625
1.2734375,-16.11328125,-23.92578125,-15.625,-12.20703125
1.27734375,-5.37109375,-28.80859375,-34.66796875,-9.765625
1.28125,0.0,-24.90234375,-31.25,8.30078125
1.28515625,-32.2265625,-26.85546875,-16.11328125,9.27734375
1.2890625,-26.85546875,-34.1796875,-15.13671875,-14.6484375
1.29296875,-1.46484375,-32.2265625,-19.53125,-24.4140625
1.296875,-6.8359375,-25.390625,-18.06640625,-13.18359375
1.30078125,-18.06640625,-20.99609375,-20.5078125,-5.859375
1.3046875,-27.83203125,-25.390625,-26.3671875,-26.85546875
1.30859375,-32.71484375,-31.73828125,-19.53125,-36.62109375
1.3125,-27.83203125,-29.296875,-11.23046875,-25.390625
1.31640625,-35.64453125,-23.92578125,-22.4609375,-26.85546875
1.3203125,-41.9921875,-32.2265625,-32.71484375,-33.203125
1.32421875,-38.57421875,-38.57421875,-19.04296875,-46.875
1.328125,-39.55078125,-32.71484375,-9.27734375,-39.0625
1.33203125,-34.66796875,-29.296875,-16.6015625,-17.08984375
1.3359375,-17.08984375,-26.85546875,-20.01953125,-3.41796875
1.33984375,1.46484375,-31.25,-15.625,-4.8828125
1.34375,-10.7421875,-24.4140625,-13.671875,-31.25
1.34765625,-22.4609375,-20.99609375,-20.5078125,-40.0390625
1.3515625,-14.6484375,-24.4140625,-31.25,-40.52734375
1.35546875,-0.48828125,-13.671875,-20.99609375,-25.390625
1.359375,-5.37109375,-11.71875,-19.04296875,-8.7890625
1.36328125,-33.203125,-19.53125,-31.73828125,-18.06640625
1.3671875,-16.6015625,-20.01953125,-24.4140625,-20.99609375
1.37109375,-10.25390625,-20.99609375,-19.53125,-22.94921875
1.375,-15.13671875,-22.94921875,-26.85546875,-26.85546875
1.37890625,-2.9296875,-14.6484375,-21.484375,-15.625
1.3828125,-9.27734375,-20.99609375,-15.13671875,-21.97265625
1.38671875,-25.87890625,-36.1328125,-26.85546875,-36.62109375
1.390625,-30.2734375,-39.0625,-34.1796875,-31.73828125
1.39453125,-31.25,-28.80859375,-25.87890625,-15.625
1.3984375,-29.296875,-25.87890625,-20.99609375,-11.23046875
1.40234375,-18.5546875,-26.85546875,-22.4609375,-18.5546875
1.40625,-16.11328125,-20.01953125,-12.6953125,-15.625
1.41015625,-16.6015625,-18.5546875,-9.27734375,-15.625
1.4140625,-26.3671875,-22.4609375,-20.01953125,-18.5546875
1.41796875,-31.25,-35.15625,-36.1328125,-27.83203125
1.421875,-21.97265625,-35.64453125,-37.109375,-38.57421875
1.42578125,-16.6015625,-23.92578125,-34.66796875,-39.0625
1.4296875,-10.7421875,-22.94921875,-37.59765625,-22.4609375
1.43359375,-14.16015625,-20.5078125,-29.296875,-17.08984375
1.4375,-20.99609375,-23.92578125,-20.5078125,-22.4609375
1.44140625,-20.01953125,-26.3671875,-21.484375,-19.04296875
1.4453125,-22.4609375,-20.01953125,-20.01953125,-17.578125
1.44921875,-19.04296875,-20.5078125,-19.53125,-20.01953125
1.453125,-8.7890625,-20.99609375,-6.34765625,-18.06640625
1.45703125,-6.8359375,-17.578125,4.39453125,-3.41796875
1.4609375,-14.16015625,-23.4375,-3.90625,-20.5078125
1.46484375,-18.06640625,-26.3671875,-11.23046875,-31.25
1.46875,-8.7890625,-24.4140625,-17.08984375,-15.625
1.47265625,-1.46484375,-19.04296875,-13.671875,-5.859375
1.4765625,1.46484375,-15.13671875,-20.01953125,0.48828125
1.48046875,-1.953125,-22.4609375,-35.64453125,-13.18359375
1.484375,-5.859375,-28.80859375,-42.48046875,-25.390625
1.48828125,-24.90234375,-27.34375,-42.96875,-29.296875
1.4921875,-24.4140625,-22.94921875,-24.4140625,-25.87890625
1.49609375,-8.7890625,-13.18359375,-7.32421875,-23.92578125
1.5,-16.11328125,-18.06640625,-6.8359375,-22.94921875
1.50390625,-6.34765625,-16.11328125,-8.7890625,-13.18359375
1.5078125,-2.9296875,-15.625,-10.25390625,-9.765625
1.51171875,-6.34765625,-25.87890625,-11.71875,-2.9296875
1.515625,-7.8125,-19.53125,-9.765625,6.34765625
1.51953125,-20.5078125,-22.4609375,-14.16015625,-1.953125
1.5234375,-23.4375,-30.76171875,-20.01953125,-13.671875
1.52734375,-20.01953125,-31.73828125,-23.4375,-12.20703125
1.53125,-10.25390625,-27.83203125,-22.94921875,-10.25390625
1.53515625,-9.27734375,-25.390625,-38.0859375,-18.5546875
1.5390625,-13.671875,-24.4140625,-35.64453125,-22.94921875
1.54296875,-3.90625,-30.76171875,-12.6953125,-19.53125
1.546875,-13.18359375,-34.1796875,-18.06640625,-15.625
1.55078125,-15.625,-29.78515625,-34.66796875,-14.16015625
1.5546875,-17.578125,-26.85546875,-30.76171875,-16.11328125
1.55859375,-31.25,-27.34375,-16.11328125,-21.484375
1.5625,-19.53125,-28.3203125,-15.13671875,-18.06640625
1.56640625,-7.32421875,-22.4609375,-15.625,-16.6015625
1.5703125,-22.94921875,-28.3203125,-25.87890625,-24.4140625
1.57421875,-27.34375,-31.73828125,-36.1328125,-12.20703125
1.578125,-6.34765625,-22.94921875,-30.76171875,5.37109375
1.58203125,-15.13671875,-18.06640625,-29.78515625,12.6953125
1.5859375,-1.953125,-10.7421875,-22.94921875,14.6484375
1.58984375,7.8125,-17.578125,-12.20703125,2.44140625
1.59375,-11.71875,-37.59765625,-18.06640625,-14.16015625
1.59765625,-22.4609375,-43.45703125,-26.85546875,-22.4609375
1.6015625,-15.13671875,-36.62109375,-24.4140625,-21.484375
1.60546875,-13.18359375,-30.76171875,-20.5078125,-21.97265625
1.609375,-23.4375,-32.71484375,-21.97265625,-17.08984375
1.61328125,-16.6015625,-34.1796875,-12.6953125,-0.48828125
1.6171875,-20.99609375,-35.64453125,-4.8828125,-0.48828125
1.62109375,-23.4375,-38.0859375,-22.94921875,-18.06640625
1.625,-8.30078125,-30.76171875,-28.80859375,-14.6484375
1.62890625,-11.71875,-21.97265625,-15.13671875,-16.11328125
1.6328125,-20.5078125,-27.34375,-16.6015625,-31.25
1.63671875,-17.578125,-37.109375,-32.2265625,-40.0390625
1.640625,-4.8828125,-34.66796875,-34.66796875,-34.1796875
1.64453125,-13.671875,-31.25,-26.3671875,-29.296875
1.6484375,-23.4375,-31.73828125,-18.5546875,-28.3203125
1.65234375,-21.97265625,-33.203125,-13.18359375,-20.01953125
1.65625,-26.3671875,-33.69140625,-12.6953125,-24.90234375
1.66015625,-7.8125,-18.5546875,-4.39453125,-34.66796875
1.6640625,1.953125,-10.7421875,0.48828125,-20.01953125
1.66796875,-15.13671875,-20.5078125,-15.13671875,-6.34765625
1.671875,-23.92578125,-25.390625,-24.90234375,-5.859375
1.67578125,-8.7890625,-33.69140625,-21.484375,-8.30078125
1.6796875,5.37109375,-31.73828125,-18.06640625,-7.32421875
1.68359375,2.44140625,-28.3203125,-22.94921875,-1.953125
1.6875,-1.953125,-29.296875,-24.90234375,-3.90625
1.69140625,-16.11328125,-30.2734375,-17.08984375,-19.53125
1.6953125,-27.34375,-35.64453125,-22.94921875,-27.34375
1.69921875,-22.4609375,-38.57421875,-32.71484375,-19.04296875
1.703125,-15.13671875,-32.2265625,-21.97265625,-7.32421875
1.70703125,-20.01953125,-28.80859375,-11.23046875,-25.87890625
1.7109375,-36.1328125,-21.97265625,-7.32421875,-33.203125
1.71484375,-37.109375,-16.6015625,-12.20703125,-11.71875
1.71875,-24.90234375,-27.34375,-23.4375,-24.4140625
1.72265625,-7.32421875,-29.78515625,-23.92578125,-32.2265625
1.7265625,3.41796875,-19.53125,-20.01953125,-20.5078125
1.73046875,-12.20703125,-25.87890625,-21.97265625,-38.0859375
1.734375,-20.99609375,-33.69140625,-27.34375,-42.48046875
1.73828125,-13.671875,-29.296875,-22.4609375,-30.76171875
1.7421875,-15.13671875,-18.06640625,-21.97265625,-18.5546875
1.74609375,-13.18359375,-8.7890625,-28.3203125,-6.34765625
1.75,-14.16015625,-19.04296875,-21.97265625,-13.18359375
1.75390625,-6.8359375,-21.484375,-13.671875,-16.6015625
1.7578125,-12.6953125,-26.3671875,-15.625,-29.78515625
1.76171875,-35.15625,-37.109375,-38.0859375,-27.83203125
1.765625,1.46484375,-6.34765625,-13.671875,14.16015625
1.76953125,5.859375,-5.37109375,19.53125,11.71875
1.7734375,-30.2734375,-42.48046875,-13.671875,-31.73828125
1.77734375,-28.80859375,-34.66796875,-26.85546875,-27.83203125
1.78125,-27.83203125,-26.3671875,-22.94921875,-12.20703125
1.78515625,-24.4140625,-30.2734375,-27.34375,-20.99609375
1.7890625,-28.3203125,-35.64453125,-38.57421875,-29.78515625
1.79296875,-35.64453125,-45.41015625,-35.15625,-41.9921875
1.796875,-60.546875,-37.109375,-23.92578125,-38.0859375
1.80078125,-26.3671875,-19.53125,-8.30078125,-17.08984375
1.8046875,17.578125,-14.16015625,1.953125,-8.30078125
1.80859375,-5.37109375,-20.01953125,-11.71875,-25.87890625
1.8125,-10.25390625,-14.16015625,-17.578125,-28.80859375
1.81640625,8.7890625,-6.34765625,-17.08984375,-15.13671875
1.8203125,3.90625,-12.6953125,-37.109375,-20.5078125
1.82421875,-12.6953125,-20.99609375,-31.25,-18.06640625
1.828125,-16.11328125,-25.87890625,-2.9296875,-25.87890625
1.83203125,-4.8828125,-26.85546875,-3.90625,-24.90234375
1.8359375,-6.34765625,-21.97265625,-18.06640625,-10.25390625
1.83984375,-13.671875,-23.92578125,-21.484375,-11.23046875
1.84375,0.0,-20.99609375,-19.53125,-10.7421875
1.84765625,4.8828125,-18.5546875,-20.01953125,-15.625
1.8515625,-11.71875,-20.01953125,-14.16015625,-9.765625
1.85546875,-25.390625,-22.4609375,-9.765625,-13.671875
1.859375,-33.69140625,-26.85546875,-19.53125,-21.484375
1.86328125,-27.34375,-25.87890625,-17.08984375,-8.30078125
1.8671875,-14.16015625,-27.83203125,-20.5078125,-12.20703125
1.87109375,-24.4140625,-25.87890625,-19.04296875,-20.01953125
1.875,-27.34375,-18.06640625,-24.4140625,-12.20703125
1.87890625,-18.06640625,-9.27734375,-41.9921875,-15.625
1.8828125,-21.484375,-10.25390625,-20.99609375,-11.23046875
1.88671875,-15.13671875,-13.18359375,-5.859375,-13.18359375
1.890625,-9.27734375,-18.5546875,-24.90234375,-34.1796875
1.89453125,-13.671875,-19.04296875,-30.2734375,-27.83203125
1.8984375,-14.6484375,-22.4609375,-20.01953125,-19.53125
1.90234375,-18.5546875,-22.4609375,-14.6484375,-17.08984375
1.90625,-6.34765625,-14.16015625,-13.18359375,-15.13671875
1.91015625,-1.953125,-15.625,-17.08984375,-24.90234375
1.9140625,-6.8359375,-18.06640625,-26.3671875,-29.78515625
1.91796875,-9.765625,-26.85546875,-29.296875,-40.0390625
1.921875,-18.06640625,-27.83203125,-25.390625,-41.50390625
1.92578125,-13.18359375,-23.92578125,-24.90234375,-31.25
1.9296875,-3.90625,-20.5078125,-16.11328125,-28.3203125
1.93359375,-13.671875,-20.01953125,-12.20703125,-27.34375
1.9375,-6.34765625,-25.87890625,-20.5078125,-26.85546875
1.94140625,-20.01953125,-21.484375,-20.5078125,-20.99609375
1.9453125,-30.2734375,-16.11328125,-19.04296875,-18.5546875
1.94921875,-20.5078125,-17.08984375,-11.23046875,-20.5078125
1.953125,-36.1328125,-26.3671875,-8.30078125,-25.87890625
1.95703125,-41.015625,-23.4375,-18.06640625,-27.83203125
1.9609375,-31.73828125,-14.16015625,-15.625,-4.39453125
1.96484375,-31.73828125,-26.3671875,-21.484375,3.41796875
1.96875,-40.52734375,-38.57421875,-26.3671875,-18.06640625
1.97265625,-30.2734375,-31.73828125,-22.94921875,-28.80859375
1.9765625,-10.7421875,-22.94921875,-12.20703125,-27.83203125
1.98046875,-9.27734375,-17.578125,10.25390625,-21.97265625
1.984375,-6.34765625,-17.08984375,5.37109375,-19.04296875
1.98828125,-5.37109375,-27.34375,-14.6484375,-21.97265625
1.9921875,-7.8125,-25.87890625,-16.6015625,-26.85546875
1.99609375,-4.8828125,-18.5546875,-9.765625,-25.87890625
2.0,-18.06640625,-20.99609375,-29.296875,-20.01953125
2.00390625,-22.94921875,-23.4375,-29.78515625,-15.13671875
2.0078125,-16.6015625,-18.5546875,-7.32421875,-29.296875
2.01171875,-27.34375,-20.99609375,-4.8828125,-33.69140625
2.015625,-31.73828125,-26.3671875,-16.11328125,-32.2265625
2.01953125,-23.92578125,-25.87890625,-28.3203125,-25.390625
2.0234375,-13.18359375,-20.01953125,-14.16015625,0.0
2.02734375,-5.37109375,-18.06640625,-3.90625,-1.953125
2.03125,-14.6484375,-23.4375,-14.16015625,-23.4375
2.03515625,-17.08984375,-20.5078125,-16.6015625,-22.94921875
2.0390625,-19.04296875,-25.390625,-18.5546875,-28.3203125
2.04296875,-16.6015625,-34.66796875,-15.13671875,-34.66796875
2.046875,-20.01953125,-35.15625,-21.484375,-20.01953125
2.05078125,-23.92578125,-24.4140625,-23.4375,-9.27734375
2.0546875,-20.5078125,-22.4609375,-14.6484375,-20.5078125
2.05859375,-24.90234375,-28.80859375,-9.765625,-39.0625
2.0625,-39.55078125,-29.296875,-16.11328125,-36.62109375
2.06640625,-27.34375,-22.94921875,-14.6484375,-37.59765625
2.0703125,-9.27734375,-17.08984375,-6.8359375,-25.87890625
2.07421875,-27.83203125,-20.99609375,-22.4609375,-25.390625
2.078125,-27.34375,-24.4140625,-17.578125,-41.50390625
2.08203125,-11.71875,-23.92578125,-7.8125,-36.62109375
2.0859375,-13.671875,-20.01953125,-16.6015625,-26.85546875
2.08984375,-27.83203125,-17.08984375,-18.5546875,-29.78515625
2.09375,-18.5546875,-9.27734375,-14.16015625,-27.83203125
2.09765625,-14.16015625,-13.18359375,-12.6953125,-20.01953125
2.1015625,-28.3203125,-22.4609375,-10.7421875,-20.99609375
2.10546875,-47.8515625,-34.66796875,-15.625,-42.96875
2.109375,-60.05859375,-41.50390625,-23.4375,-60.05859375
2.11328125,-59.08203125,-33.203125,-15.13671875,-52.24609375
2.1171875,-58.59375,-33.69140625,-9.765625,-51.7578125
2.12109375,-65.91796875,-37.59765625,-18.06640625,-70.80078125
2.125,-66.40625,-32.2265625,-18.5546875,-81.54296875
2.12890625,-84.9609375,-36.1328125,-15.13671875,-96.19140625
2.1328125,-128.90625,-41.50390625,-13.671875,-114.2578125
2.13671875,-134.27734375,-30.76171875,-14.6484375,-123.046875
2.140625,-124.51171875,-26.3671875,-14.16015625,-133.30078125
2.14453125,-126.953125,-33.69140625,-13.18359375,-142.08984375
2.1484375,-143.5546875,-35.15625,-27.83203125,-161.62109375
2.15234375,-163.0859375,-29.78515625,-37.59765625,-174.31640625
2.15625,-164.0625,-21.97265625,-20.5078125,-178.22265625
2.16015625,-167.96875,-21.484375,-5.859375,-180.17578125
2.1640625,-180.6640625,-34.66796875,-12.20703125,-189.453125
2.16796875,-177.24609375,-37.59765625,-21.484375,-187.5
2.171875,-157.2265625,-21.484375,-26.3671875,-175.29296875
2.17578125,-159.66796875,-21.484375,-25.390625,-169.43359375
2.1796875,-146.97265625,-22.94921875,-17.578125,-158.69140625
2.18359375,-135.7421875,-16.6015625,-13.671875,-135.25390625
2.1875,-132.32421875,-25.390625,-19.04296875,-121.09375
2.19140625,-112.79296875,-26.3671875,-21.97265625,-114.74609375
2.1953125,-91.796875,-22.4609375,-20.01953125,-105.95703125
2.19921875,-82.51953125,-25.87890625,-22.94921875,-92.28515625
2.203125,-73.73046875,-22.4609375,-32.71484375,-74.70703125
2.20703125,-54.19921875,-21.97265625,-37.109375,-65.91796875
2.2109375,-43.45703125,-23.4375,-31.25,-66.89453125
2.21484375,-38.0859375,-20.5078125,-29.296875,-56.640625
2.21875,-49.8046875,-25.390625,-33.203125,-49.8046875
2.22265625,-48.828125,-28.3203125,-26.85546875,-43.45703125
2.2265625,-21.484375,-32.2265625,-22.94921875,-24.4140625
2.23046875,-8.30078125,-37.109375,-28.3203125,-15.13671875
2.234375,-8.7890625,-34.66796875,-24.4140625,-15.625
2.23828125,1.953125,-25.87890625,-9.765625,-0.9765625
2.2421875,21.97265625,-20.01953125,-10.25390625,23.92578125
2.24609375,13.671875,-28.3203125,-25.390625,26.3671875
2.25,8.30078125,-29.78515625,-33.203125,22.4609375
2.25390625,15.13671875,-25.390625,-29.78515625,21.484375
2.2578125,7.32421875,-28.80859375,-26.3671875,18.06640625
2.26171875,6.34765625,-36.62109375,-27.83203125,17.08984375
2.265625,9.27734375,-41.50390625,-34.66796875,3.90625
2.26953125,4.39453125,-34.66796875,-33.203125,-2.9296875
2.2734375,9.27734375,-18.06640625,-19.53125,0.48828125
2.27734375,0.9765625,-22.4609375,-16.11328125,-0.48828125
2.28125,15.625,-26.85546875,-19.04296875,11.23046875
2.28515625,14.16015625,-18.5546875,-21.97265625,10.25390625
2.2890625,5.37109375,-23.4375,-19.04296875,6.34765625
2.29296875,14.6484375,-32.2265625,-17.08984375,12.20703125
2.296875,24.90234375,-29.78515625,-19.53125,19.04296875
2.30078125,33.69140625,-18.5546875,-20.5078125,40.0390625
2.3046875,31.25,-16.6015625,-19.53125,35.64453125
2.30859375,24.4140625,-27.83203125,-28.3203125,22.4609375
2.3125,22.94921875,-29.78515625,-31.73828125,27.34375
2.31640625,33.69140625,-25.390625,-20.5078125,31.25
2.3203125,40.0390625,-19.04296875,-28.3203125,30.2734375
2.32421875,22.4609375,-21.484375,-34.1796875,16.11328125
2.328125,6.8359375,-32.2265625,-24.90234375,2.44140625
2.33203125,18.06640625,-37.59765625,-26.3671875,-1.46484375
2.3359375,20.5078125,-30.76171875,-11.71875,3.90625
2.33984375,8.7890625,-24.90234375,0.48828125,17.08984375
2.34375,10.7421875,-28.3203125,-12.6953125,12.6953125
2.34765625,18.06640625,-25.87890625,-15.625,12.20703125
2.3515625,18.5546875,-25.390625,-12.6953125,8.7890625
2.35546875,23.4375,-19.53125,-28.80859375,13.18359375
2.359375,18.06640625,-23.4375,-33.69140625,15.625
2.36328125,6.34765625,-32.2265625,-20.99609375,12.20703125
2.3671875,0.9765625,-25.390625,-17.08984375,17.578125
2.37109375,0.48828125,-25.390625,-16.6015625,8.7890625
2.375,8.7890625,-22.94921875,-16.11328125,-6.34765625
2.37890625,16.11328125,-18.06640625,-16.11328125,0.0
2.3828125,20.01953125,-17.08984375,-11.71875,15.625
2.38671875,6.8359375,-21.97265625,-9.765625,10.25390625
2.390625,6.8359375,-24.90234375,-24.4140625,-1.46484375
2.39453125,16.11328125,-17.578125,-28.80859375,11.71875
2.3984375,9.765625,-17.578125,-13.18359375,19.04296875
2.40234375,14.16015625,-22.94921875,-1.953125,20.5078125
2.40625,18.06640625,-30.76171875,-12.6953125,8.7890625
2.41015625,0.0,-32.2265625,-20.99609375,-8.30078125
2.4140625,1.46484375,-19.53125,-12.6953125,-0.48828125
2.41796875,0.0,-24.90234375,-15.13671875,-1.46484375
2.421875,-1.46484375,-35.15625,-23.4375,-9.765625
2.42578125,7.8125,-31.25,-24.90234375,-12.6953125
2.4296875,4.8828125,-24.90234375,-34.1796875,-4.39453125
2.43359375,16.11328125,-15.13671875,-35.15625,10.25390625
2.4375,18.06640625,-11.71875,-15.625,17.08984375
2.44140625,14.16015625,-12.6953125,-3.41796875,16.11328125
2.4453125,14.16015625,-19.04296875,-11.71875,-1.46484375
2.44921875,4.8828125,-23.92578125,-22.4609375,-5.37109375
2.453125,5.859375,-22.4609375,-24.90234375,1.46484375
2.45703125,9.765625,-21.484375,-15.13671875,5.859375
2.4609375,10.7421875,-20.5078125,-9.765625,4.8828125
2.46484375,6.8359375,-16.6015625,-22.94921875,15.13671875
2.46875,7.32421875,-15.625,-25.87890625,26.3671875
2.47265625,15.625,-21.484375,-13.18359375,6.8359375
2.4765625,6.34765625,-21.97265625,-5.859375,3.90625
2.48046875,18.06640625,-20.01953125,0.0,14.16015625
2.484375,24.4140625,-19.53125,0.48828125,13.671875
2.48828125,-0.9765625,-23.4375,-8.7890625,5.859375
2.4921875,-5.859375,-26.3671875,-25.390625,-10.25390625
2.49609375,1.46484375,-25.390625,-37.109375,-16.6015625
2.5,10.25390625,-20.01953125,-28.80859375,-8.7890625
2.50390625,16.11328125,-14.6484375,-18.06640625,2.9296875
2.5078125,17.08984375,-18.5546875,-18.5546875,-0.9765625
2.51171875,21.484375,-22.4609375,-18.5546875,0.0
2.515625,1.46484375,-27.83203125,-18.5546875,2.44140625
2.51953125,-23.92578125,-32.2265625,-22.4609375,-8.7890625
2.5234375,-16.11328125,-23.4375,-8.30078125,-9.27734375
2.52734375,-14.16015625,-25.390625,-9.765625,-16.6015625
2.53125,-14.6484375,-33.69140625,-22.4609375,-9.765625
2.53515625,-2.44140625,-22.94921875,-26.85546875,4.8828125
2.5390625,-5.859375,-20.01953125,-37.109375,-4.8828125
2.54296875,-20.01953125,-25.87890625,-36.62109375,-20.5078125
2.546875,-21.484375,-21.484375,-28.80859375,-17.578125
2.55078125,-20.01953125,-19.53125,-19.53125,-5.37109375
2.5546875,-20.01953125,-21.484375,-17.578125,0.0
2.55859375,-22.4609375,-23.4375,-21.97265625,-1.46484375
2.5625,-20.5078125,-21.484375,-22.4609375,-11.23046875
2.56640625,-22.94921875,-29.78515625,-27.83203125,-18.06640625
2.5703125,-20.01953125,-28.3203125,-28.3203125,-11.71875
2.57421875,-10.7421875,-18.5546875,-19.04296875,-10.25390625
2.578125,-16.11328125,-30.76171875,-16.11328125,-28.80859375
2.58203125,-29.296875,-39.55078125,-20.5078125,-35.15625
2.5859375,-30.2734375,-34.1796875,-27.34375,-38.0859375
2.58984375,-18.5546875,-29.78515625,-26.3671875,-31.73828125
2.59375,-19.53125,-30.76171875,-22.94921875,-28.80859375
2.59765625,-32.2265625,-26.85546875,-17.08984375,-26.3671875
2.6015625,-17.578125,-23.4375,-8.7890625,-8.7890625
2.60546875,-11.71875,-34.1796875,-21.484375,-19.53125
2.609375,-19.53125,-35.64453125,-37.109375,-20.99609375
2.61328125,-19.53125,-27.34375,-36.1328125,-11.71875
2.6171875,-17.578125,-21.484375,-17.578125,-8.7890625
2.62109375,-13.671875,-21.484375,-5.859375,4.39453125
2.625,-17.08984375,-22.94921875,-9.27734375,4.8828125
2.62890625,-24.90234375,-18.06640625,-10.25390625,-17.08984375
2.6328125,-39.55078125,-21.484375,-16.6015625,-33.69140625
2.63671875,-33.69140625,-23.4375,-28.80859375,-34.1796875
2.640625,-21.97265625,-18.06640625,-26.85546875,-29.296875
2.64453125,-26.85546875,-20.5078125,-21.484375,-27.83203125
2.6484375,-26.3671875,-20.01953125,-21.484375,-23.92578125
2.65234375,-16.11328125,-17.578125,-19.53125,-14.16015625
2.65625,-10.25390625,-20.99609375,-32.2265625,-17.08984375
2.66015625,-14.16015625,-21.97265625,-37.109375,-17.08984375
2.6640625,-8.7890625,-17.578125,-28.80859375,-6.8359375
2.66796875,-0.9765625,-17.08984375,-25.87890625,-10.7421875
2.671875,-3.41796875,-16.11328125,-13.18359375,-17.578125
2.67578125,2.44140625,-6.8359375,-2.44140625,-11.23046875
2.6796875,-2.9296875,-14.16015625,-13.671875,-21.484375
2.68359375,-20.5078125,-27.83203125,-25.390625,-35.15625
2.6875,-27.83203125,-39.0625,-26.85546875,-46.875
2.69140625,-29.296875,-34.1796875,-33.203125,-41.9921875
2.6953125,-15.625,-16.6015625,-34.1796875,-22.94921875
2.69921875,-24.4140625,-20.01953125,-22.4609375,-25.390625
2.703125,-26.3671875,-27.83203125,-20.99609375,-27.34375
2.70703125,-25.87890625,-25.87890625,-22.94921875,-25.87890625
2.7109375,-31.25,-26.3671875,-23.92578125,-19.53125
2.71484375,-25.390625,-31.25,-28.80859375,-14.6484375
2.71875,-15.625,-23.92578125,-21.484375,-17.08984375
2.72265625,-7.32421875,-17.578125,-11.71875,-14.6484375
2.7265625,-3.90625,-20.5078125,-13.18359375,-19.04296875
2.73046875,-0.9765625,-15.625,-15.13671875,-14.16015625
2.734375,11.71875,-7.8125,-13.18359375,3.41796875
2.73828125,14.6484375,-14.16015625,-20.99609375,-5.859375
2.7421875,10.7421875,-26.3671875,-30.76171875,-18.06640625
2.74609375,1.46484375,-29.296875,-32.2265625,-27.83203125
2.75,-16.6015625,-30.2734375,-27.34375,-44.43359375
2.75390625,-24.4140625,-34.1796875,-23.92578125,-51.26953125
2.7578125,-32.71484375,-36.1328125,-21.484375,-46.875
2.76171875,-28.80859375,-35.64453125,-20.5078125,-36.1328125
2.765625,-18.06640625,-26.85546875,-23.4375,-28.80859375
2.76953125,-23.4375,-22.94921875,-24.90234375,-34.1796875
2.7734375,-22.94921875,-22.94921875,-26.3671875,-39.55078125
2.77734375,-24.4140625,-21.484375,-25.390625,-23.4375
2.78125,-9.765625,-7.8125,-18.06640625,-0.48828125
2.78515625,11.71875,-2.9296875,-27.83203125,-9.27734375
2.7890625,-9.765625,-28.3203125,-42.96875,-21.484375
2.79296875,-33.203125,-38.0859375,-24.4140625,-16.11328125
2.796875,-42.48046875,-35.15625,-19.53125,-30.2734375
2.80078125,-43.9453125,-34.1796875,-27.34375,-33.69140625
2.8046875,-29.78515625,-28.3203125,-28.3203125,-26.85546875
2.80859375,-25.87890625,-30.76171875,-24.90234375,-22.94921875
2.8125,-5.859375,-28.3203125,-14.6484375,-20.01953125
2.81640625,7.32421875,-19.04296875,-17.08984375,-18.5546875
2.8203125,1.46484375,-14.6484375,-26.3671875,-20.5078125
2.82421875,-4.8828125,-18.06640625,-32.71484375,-29.78515625
2.828125,-17.08984375,-27.83203125,-35.15625,-31.73828125
2.83203125,-19.04296875,-24.90234375,-16.11328125,-30.76171875
2.8359375,-23.4375,-24.4140625,-10.25390625,-33.203125
2.83984375,-26.85546875,-28.3203125,-27.34375,-29.78515625
2.84375,-19.53125,-27.83203125,-20.99609375,-25.390625
2.84765625,-22.94921875,-27.83203125,-18.5546875,-30.2734375
2.8515625,-28.3203125,-27.83203125,-19.04296875,-30.2734375
2.85546875,-8.7890625,-24.4140625,-19.53125,-30.76171875
2.859375,11.23046875,-17.578125,-29.78515625,-19.53125
2.86328125,-7.32421875,-21.484375,-29.296875,-20.5078125
2.8671875,-22.94921875,-28.80859375,-23.4375,-33.69140625
2.87109375,-28.3203125,-31.73828125,-20.01953125,-26.3671875
2.875,-26.3671875,-30.2734375,-17.08984375,-22.4609375
2.87890625,-14.16015625,-23.4375,-19.53125,-27.34375
2.8828125,-17.08984375,-20.01953125,-19.04296875,-22.94921875
2.88671875,-30.76171875,-29.78515625,-24.90234375,-32.2265625
2.890625,-30.2734375,-37.109375,-23.92578125,-39.55078125
2.89453125,-12.20703125,-29.296875,-13.18359375,-33.69140625
2.8984375,-3.90625,-24.90234375,-24.90234375,-22.94921875
2.90234375,-11.23046875,-16.6015625,-26.3671875,-14.16015625
2.90625,-14.6484375,-10.7421875,-2.44140625,-21.97265625
2.91015625,-26.3671875,-17.08984375,-6.8359375,-34.66796875
2.9140625,-30.2734375,-24.90234375,-32.2265625,-34.1796875
2.91796875,-27.34375,-28.3203125,-41.50390625,-41.50390625
2.921875,-17.578125,-21.97265625,-32.71484375,-42.96875
2.92578125,-15.625,-18.06640625,-10.7421875,-26.85546875
2.9296875,-24.90234375,-17.08984375,-3.90625,-32.71484375
2.93359375,-14.16015625,-22.4609375,-17.08984375,-40.52734375
2.9375,1.46484375,-20.5078125,-15.13671875,-35.64453125
2.94140625,5.859375,-13.18359375,-19.04296875,-31.25
2.9453125,2.44140625,-14.16015625,-32.2265625,-19.04296875
2.94921875,-8.7890625,-15.13671875,-26.85546875,-13.18359375
2.953125,-17.578125,-17.08984375,-9.765625,-14.16015625
2.95703125,-15.625,-19.53125,-1.953125,-8.30078125
2.9609375,-19.04296875,-16.6015625,-10.7421875,-11.23046875
2.96484375,-24.4140625,-15.13671875,-20.5078125,-19.04296875
2.96875,-18.5546875,-17.08984375,-24.90234375,-22.4609375
2.97265625,-21.484375,-20.01953125,-27.83203125,-31.73828125
2.9765625,-28.3203125,-18.06640625,-22.94921875,-36.62109375
2.98046875,-30.76171875,-13.671875,-21.484375,-32.2265625
2.984375,-24.4140625,-7.8125,-16.11328125,-17.578125
2.98828125,-22.94921875,-4.8828125,-7.32421875,-14.16015625
2.9921875,-30.2734375,-11.23046875,-7.8125,-33.69140625
2.99609375,-30.2734375,-17.578125,-10.7421875,-48.828125
3.0,-36.1328125,-18.5546875,-17.08984375,-50.78125
3.00390625,-50.78125,-15.625,-14.16015625,-52.24609375
3.0078125,-55.17578125,-14.6484375,-16.11328125,-61.03515625
3.01171875,-60.05859375,-14.6484375,-18.06640625,-63.4765625
3.015625,-81.0546875,-19.04296875,-12.6953125,-72.265625
3.01953125,-90.33203125,-20.5078125,-14.6484375,-90.8203125
3.0234375,-89.84375,-18.5546875,-15.625,-95.21484375
3.02734375,-84.47265625,-11.23046875,-20.5078125,-102.05078125
3.03125,-95.703125,-8.30078125,-20.01953125,-113.76953125
3.03515625,-129.39453125,-14.6484375,-19.53125,-131.34765625
3.0390625,-142.578125,-5.859375,-17.578125,-135.7421875
3.04296875,-147.94921875,-2.44140625,-23.92578125,-133.7890625
3.046875,-166.015625,-13.18359375,-27.83203125,-146.97265625
3.05078125,-171.875,-13.671875,-19.04296875,-150.390625
3.0546875,-160.64453125,-11.71875,-31.73828125,-158.203125
3.05859375,-156.25,-14.16015625,-26.85546875,-151.3671875
3.0625,-143.5546875,-20.01953125,-4.39453125,-127.9296875
3.06640625,-125.48828125,-26.3671875,-3.41796875,-125.48828125
3.0703125,-122.0703125,-18.5546875,-11.23046875,-131.8359375
3.07421875,-107.91015625,-15.625,-18.5546875,-117.1875
3.078125,-95.21484375,-20.5078125,-17.08984375,-104.00390625
3.08203125,-92.7734375,-16.6015625,-19.53125,-103.02734375
3.0859375,-79.1015625,-15.625,-22.94921875,-91.796875
3.08984375,-67.3828125,-15.13671875,-22.4609375,-79.58984375
3.09375,-58.10546875,-11.71875,-35.64453125,-77.63671875
3.09765625,-44.921875,-12.6953125,-53.7109375,-66.40625
3.1015625,-35.15625,-14.16015625,-50.78125,-47.8515625
3.10546875,-18.5546875,-15.13671875,-33.203125,-32.2265625
3.109375,-8.7890625,-19.53125,-17.578125,-25.87890625
3.11328125,-20.5078125,-28.3203125,-17.578125,-27.83203125
3.1171875,-22.94921875,-31.73828125,-25.87890625,-16.11328125
3.12109375,-21.97265625,-31.73828125,-23.92578125,-6.8359375
3.125,-21.97265625,-27.34375,-18.5546875,-7.32421875
3.12890625,-14.16015625,-27.34375,-17.08984375,-5.37109375
3.1328125,-12.20703125,-35.64453125,-17.08984375,5.37109375
3.13671875,-5.859375,-32.71484375,-19.53125,7.32421875
3.140625,12.6953125,-22.4609375,-17.08984375,8.30078125
3.14453125,12.20703125,-22.4609375,-19.04296875,13.671875
3.1484375,0.0,-31.25,-37.59765625,5.859375
3.15234375,2.44140625,-27.83203125,-38.0859375,3.41796875
3.15625,10.7421875,-19.53125,-19.53125,5.859375
3.16015625,18.5546875,-13.671875,-13.18359375,2.44140625
3.1640625,11.71875,-22.94921875,-37.109375,-8.30078125
3.16796875,0.9765625,-37.109375,-43.9453125,-19.04296875
3.171875,-6.34765625,-33.69140625,-32.2265625,-9.765625
3.17578125,-3.41796875,-27.34375,-25.87890625,9.765625
3.1796875,11.23046875,-25.390625,-26.3671875,13.18359375
3.18359375,17.578125,-21.97265625,-27.34375,8.7890625
3.1875,23.4375,-19.53125,-27.83203125,17.578125
3.19140625,32.2265625,-19.53125,-17.08984375,20.01953125
3.1953125,44.921875,-17.08984375,1.953125,23.4375
3.19921875,37.109375,-21.97265625,-0.48828125,27.34375
3.203125,16.6015625,-30.76171875,-12.20703125,20.5078125
3.20703125,13.671875,-29.78515625,-13.671875,19.53125
3.2109375,15.625,-29.78515625,-18.06640625,20.01953125
3.21484375,15.625,-29.78515625,-27.83203125,17.08984375
3.21875,12.20703125,-22.4609375,-26.85546875,20.01953125
3.22265625,17.08984375,-18.06640625,-16.6015625,12.6953125
3.2265625,18.5546875,-22.4609375,-19.53125,0.9765625
3.23046875,16.6015625,-26.85546875,-29.296875,7.8125
3.234375,23.92578125,-20.01953125,-31.25,20.5078125
3.23828125,21.484375,-18.06640625,-25.87890625,9.27734375
3.2421875,0.0,-24.90234375,-16.6015625,-10.25390625
3.24609375,-0.48828125,-28.3203125,-16.6015625,-15.13671875
3.25,20.99609375,-22.94921875,-21.484375,-4.39453125
3.25390625,20.01953125,-14.6484375,-22.4609375,4.8828125
3.2578125,25.87890625,-14.6484375,-22.94921875,5.37109375
3.26171875,36.1328125,-26.85546875,-23.4375,1.46484375
3.265625,30.76171875,-27.83203125,-20.5078125,6.34765625
3.26953125,23.92578125,-19.04296875,-11.71875,19.53125
3.2734375,31.25,-20.5078125,-16.6015625,15.13671875
3.27734375,35.15625,-21.97265625,-12.6953125,21.97265625
3.28125,24.90234375,-25.87890625,4.8828125,28.80859375
3.28515625,29.296875,-26.85546875,-1.953125,20.01953125
3.2890625,27.34375,-28.80859375,-13.671875,25.390625
3.29296875,11.71875,-30.76171875,-15.625,30.2734375
3.296875,7.8125,-30.2734375,-6.34765625,30.76171875
3.30078125,-1.953125,-36.1328125,-1.46484375,7.32421875
3.3046875,-23.92578125,-37.59765625,-11.71875,-13.18359375
3.30859375,-34.1796875,-38.0859375,-22.94921875,-16.11328125
3.3125,-32.2265625,-38.57421875,-31.25,-17.578125
3.31640625,-19.04296875,-39.0625,-32.2265625,-7.8125
3.3203125,-5.37109375,-38.0859375,-23.4375,-10.25390625
3.32421875,2.44140625,-32.71484375,-14.16015625,-10.25390625
3.328125,9.27734375,-25.390625,-20.01953125,0.0
3.33203125,6.8359375,-24.90234375,-25.390625,-1.46484375
3.3359375,11.23046875,-31.73828125,-22.94921875,-11.23046875
3.33984375,21.484375,-29.296875,-24.90234375,-11.23046875
3.34375,14.6484375,-24.90234375,-31.25,-10.25390625
3.34765625,-3.41796875,-25.87890625,-24.4140625,-12.20703125
3.3515625,-2.9296875,-25.390625,-15.625,-6.8359375
3.35546875,-4.39453125,-27.34375,-13.671875,-5.859375
3.359375,0.0,-22.4609375,-9.27734375,-1.953125
3.36328125,5.859375,-16.6015625,-17.578125,5.37109375
3.3671875,6.8359375,-17.578125,-32.71484375,-1.953125
3.37109375,1.46484375,-22.94921875,-27.34375,-12.20703125
3.375,-1.46484375,-22.4609375,-12.6953125,-3.41796875
3.37890625,-1.953125,-25.390625,-12.6953125,-2.9296875
3.3828125,-6.34765625,-31.25,-18.5546875,-12.20703125
3.38671875,-16.6015625,-32.2265625,-27.83203125,-17.08984375
3.390625,-7.32421875,-22.94921875,-29.296875,-12.20703125
3.39453125,11.71875,-10.7421875,-13.671875,8.30078125
3.3984375,-16.6015625,-26.85546875,-7.8125,-6.34765625
3.40234375,-48.828125,-41.015625,-15.13671875,-27.34375
3.40625,-40.0390625,-36.1328125,-22.4609375,-28.80859375
3.41015625,-32.71484375,-32.2265625,-16.6015625,-32.71484375
3.4140625,-44.43359375,-30.76171875,3.41796875,-20.5078125
3.41796875,-45.41015625,-41.015625,-13.18359375,-24.4140625
3.421875,-42.96875,-45.8984375,-35.64453125,-42.96875
3.42578125,-47.36328125,-47.36328125,-29.78515625,-44.43359375
3.4296875,-39.55078125,-49.31640625,-17.578125,-38.0859375
3.43359375,-32.2265625,-47.36328125,-16.11328125,-31.73828125
3.4375,-30.76171875,-45.8984375,-19.04296875,-34.1796875
3.44140625,-23.4375,-40.0390625,-16.6015625,-21.484375
3.4453125,-16.6015625,-36.1328125,-20.01953125,-8.30078125
3.44921875,-20.99609375,-41.9921875,-33.69140625,-20.99609375
3.453125,-16.6015625,-39.55078125,-36.1328125,-20.99609375
3.45703125,-4.39453125,-31.25,-37.59765625,-15.625
3.4609375,4.8828125,-25.390625,-34.1796875,-11.71875
3.46484375,-8.30078125,-23.4375,-28.80859375,-10.25390625
3.46875,-13.671875,-22.94921875,-14.16015625,-12.6953125
3.47265625,1.46484375,-11.23046875,-4.39453125,-13.671875
3.4765625,5.37109375,-5.859375,-12.20703125,-10.25390625
3.48046875,-13.18359375,-25.390625,-17.08984375,-16.11328125
3.484375,-22.94921875,-32.2265625,-20.99609375,-30.76171875
3.48828125,-28.80859375,-24.4140625,-13.18359375,-27.83203125
3.4921875,-24.4140625,-19.04296875,-5.859375,-3.90625
3.49609375,-20.5078125,-26.3671875,-17.08984375,-4.39453125
3.5,-24.4140625,-32.2265625,-22.94921875,-15.13671875
3.50390625,-9.765625,-22.4609375,-16.6015625,-6.34765625
3.5078125,-2.9296875,-14.16015625,-10.25390625,-0.9765625
3.51171875,-9.27734375,-17.08984375,-9.765625,2.9296875
3.515625,-9.765625,-24.4140625,-5.37109375,6.8359375
3.51953125,-14.6484375,-30.76171875,-7.8125,3.90625
3.5234375,-27.83203125,-35.64453125,-12.20703125,-9.765625
3.52734375,-34.66796875,-30.2734375,-10.25390625,-16.6015625
3.53125,-38.0859375,-25.390625,-16.6015625,-17.578125
3.53515625,-29.296875,-26.85546875,-19.04296875,-25.390625
3.5390625,-27.83203125,-24.90234375,-26.3671875,-27.83203125
3.54296875,-35.15625,-29.296875,-38.0859375,-20.5078125
3.546875,-36.62109375,-35.15625,-38.57421875,-27.83203125
3.55078125,-34.1796875,-37.109375,-24.90234375,-41.9921875
3.5546875,-21.97265625,-31.73828125,-12.6953125,-28.80859375
3.55859375,-18.5546875,-24.90234375,-5.859375,-22.4609375
3.5625,-17.08984375,-25.390625,-3.41796875,-15.625
3.56640625,-15.13671875,-22.94921875,-3.41796875,-4.8828125
3.5703125,-9.27734375,-15.13671875,-0.9765625,-1.953125
3.57421875,-8.7890625,-23.92578125,-7.32421875,0.0
3.578125,-11.71875,-25.87890625,-17.578125,1.46484375
3.58203125,-10.7421875,-21.97265625,-22.4609375,-0.9765625
3.5859375,-5.859375,-24.4140625,-18.5546875,-1.46484375
3.58984375,-2.44140625,-28.80859375,-22.94921875,-7.32421875
3.59375,-19.53125,-31.73828125,-25.390625,-17.578125
3.59765625,-21.97265625,-29.296875,-19.04296875,-12.20703125
3.6015625,-10.7421875,-26.85546875,-28.80859375,-7.32421875
3.60546875,-17.578125,-25.87890625,-42.48046875,-10.7421875
3.609375,-22.4609375,-28.80859375,-30.2734375,-20.01953125
3.61328125,-2.9296875,-26.3671875,-12.20703125,-24.90234375
3.6171875,3.41796875,-21.97265625,-12.6953125,-22.94921875
3.62109375,-10.7421875,-16.6015625,-18.06640625,-16.11328125
3.625,-17.578125,-18.5546875,-28.80859375,-22.4609375
3.62890625,-17.08984375,-22.4609375,-29.296875,-26.85546875
3.6328125,-9.765625,-20.99609375,-26.85546875,-24.90234375
3.63671875,-12.6953125,-13.671875,-23.4375,-27.83203125
3.640625,-16.6015625,-12.6953125,-15.625,-28.80859375
3.64453125,-21.97265625,-20.99609375,-17.08984375,-34.66796875
3.6484375,-25.87890625,-25.390625,-23.92578125,-35.64453125
3.65234375,-21.97265625,-27.34375,-21.97265625,-18.5546875
3.65625,-20.99609375,-18.06640625,-10.7421875,-16.11328125
3.66015625,-34.1796875,-11.71875,-18.06640625,-35.64453125
3.6640625,-41.9921875,-15.625,-27.34375,-42.48046875
3.66796875,-31.73828125,-21.484375,-19.53125,-43.45703125
3.671875,-32.2265625,-26.85546875,-20.5078125,-50.29296875
3.67578125,-26.3671875,-23.4375,-26.3671875,-46.875
3.6796875,-26.85546875,-24.90234375,-29.296875,-36.1328125
3.68359375,-32.2265625,-29.296875,-26.85546875,-31.73828125
3.6875,-18.5546875,-24.90234375,-29.296875,-25.390625
3.69140625,-3.90625,-16.6015625,-33.69140625,-15.13671875
3.6953125,-8.30078125,-22.4609375,-27.83203125,-15.13671875
3.69921875,-10.25390625,-26.3671875,-23.92578125,-16.6015625
3.703125,-1.46484375,-15.13671875,-24.90234375,-10.25390625
3.70703125,0.0,-20.99609375,-27.83203125,-15.625
3.7109375,1.953125,-26.85546875,-32.71484375,-18.5546875
3.71484375,-0.9765625,-19.53125,-35.64453125,-9.27734375
3.71875,2.44140625,-17.578125,-34.66796875,-11.71875
3.72265625,-5.37109375,-26.3671875,-26.85546875,-18.5546875
3.7265625,-7.32421875,-27.34375,-20.5078125,-27.34375
3.73046875,-21.97265625,-34.1796875,-20.5078125,-26.3671875
3.734375,-31.73828125,-36.62109375,-23.92578125,-15.625
3.73828125,1.953125,-13.18359375,-17.578125,-4.8828125
3.7421875,-9.27734375,-16.6015625,-20.99609375,-10.25390625
3.74609375,-29.78515625,-30.2734375,-36.62109375,-33.69140625
3.75,-20.01953125,-23.4375,-36.1328125,-35.64453125
3.75390625,-18.06640625,-20.01953125,-30.2734375,-31.73828125
3.7578125,-6.34765625,-16.11328125,-21.97265625,-35.15625
3.76171875,-3.41796875,-13.671875,-18.5546875,-37.59765625
3.765625,-7.32421875,-12.6953125,-27.83203125,-37.109375
3.76953125,-9.765625,-16.11328125,-34.66796875,-32.71484375
3.7734375,-18.06640625,-21.97265625,-26.85546875,-34.66796875
3.77734375,-26.85546875,-22.94921875,-15.625,-30.76171875
3.78125,-25.390625,-23.92578125,-15.625,-20.5078125
3.78515625,-21.97265625,-31.25,-37.59765625,-34.1796875
3.7890625,-24.4140625,-32.2265625,-41.015625,-37.109375
3.79296875,-16.11328125,-28.80859375,-22.94921875,-23.4375
3.796875,-8.7890625,-20.01953125,-16.11328125,-7.32421875
3.80078125,-18.06640625,-23.4375,-23.4375,-2.9296875
3.8046875,-27.83203125,-29.78515625,-19.53125,-15.13671875
3.80859375,-24.4140625,-25.390625,-1.46484375,-8.30078125
3.8125,-23.4375,-34.66796875,-8.7890625,-3.41796875
3.81640625,-14.6484375,-27.34375,-20.5078125,-5.859375
3.8203125,-10.7421875,-20.01953125,-22.4609375,-6.8359375
3.82421875,-24.90234375,-28.80859375,-24.90234375,-3.41796875
3.828125,-28.3203125,-28.80859375,-23.4375,-4.8828125
3.83203125,-25.87890625,-30.2734375,-27.34375,-18.06640625
3.8359375,-16.6015625,-25.390625,-13.671875,-15.625
3.83984375,-15.13671875,-28.80859375,-14.16015625,-7.8125
3.84375,-4.39453125,-24.4140625,-14.16015625,9.27734375
3.84765625,10.25390625,-11.71875,-9.27734375,8.7890625
3.8515625,0.9765625,-19.04296875,-24.90234375,-9.27734375
3.85546875,-9.27734375,-27.83203125,-24.4140625,-19.53125
3.859375,-16.11328125,-29.296875,-19.53125,-32.2265625
3.86328125,-13.671875,-27.83203125,-22.4609375,-32.2265625
3.8671875,-18.06640625,-25.390625,-25.390625,-33.69140625
3.87109375,-22.94921875,-30.2734375,-36.1328125,-35.15625
3.875,-17.08984375,-26.85546875,-31.25,-30.2734375
3.87890625,-10.7421875,-17.08984375,-14.16015625,-26.85546875
3.8828125,-15.625,-24.4140625,-21.484375,-25.87890625
3.88671875,-25.390625,-29.78515625,-30.2734375,-32.2265625
3.890625,-31.25,-29.296875,-21.484375,-26.3671875
3.89453125,-24.90234375,-22.94921875,-12.20703125,-14.6484375
3.8984375,-5.859375,-18.06640625,-15.13671875,-9.27734375
3.90234375,1.953125,-20.5078125,-11.23046875,-6.34765625
3.90625,-7.8125,-18.5546875,-9.27734375,-14.16015625
3.91015625,-15.13671875,-18.5546875,-10.7421875,-17.08984375
3.9140625,-1.46484375,-19.04296875,-14.6484375,-0.48828125
3.91796875,24.90234375,-12.6953125,-24.90234375,16.6015625
3.921875,21.484375,-20.99609375,-19.04296875,17.08984375
3.92578125,-16.11328125,-40.0390625,-13.671875,-5.37109375
3.9296875,-44.43359375,-45.41015625,-16.6015625,-24.90234375
3.93359375,-57.6171875,-49.31640625,-25.87890625,-32.71484375
3.9375,-52.24609375,-40.0390625,-23.92578125,-32.71484375
3.94140625,-45.8984375,-24.90234375,-12.20703125,-29.296875
3.9453125,-57.6171875,-24.4140625,-26.3671875,-21.97265625
3.94921875,-54.6875,-29.296875,-34.1796875,-18.5546875
3.953125,-43.9453125,-24.90234375,-20.99609375,-22.4609375
3.95703125,-48.828125,-20.5078125,-17.08984375,-21.97265625
3.9609375,-41.015625,-23.4375,-11.71875,-8.30078125
3.96484375,-21.97265625,-21.97265625,-12.20703125,-7.32421875
3.96875,-18.5546875,-26.85546875,-25.87890625,-21.97265625
3.97265625,-10.7421875,-31.25,-26.85546875,-21.97265625
3.9765625,-3.41796875,-25.87890625,-20.99609375,-17.578125
3.98046875,13.671875,-14.6484375,-12.6953125,-7.32421875
3.984375,20.99609375,-12.6953125,-15.625,-1.46484375
3.98828125,4.8828125,-22.94921875,-26.85546875,-6.8359375
3.9921875,4.39453125,-21.97265625,-21.97265625,-9.765625
3.99609375,-5.37109375,-26.85546875,-30.76171875,-13.671875
4.0,-7.8125,-33.203125,-30.76171875,-5.37109375
4.00390625,-6.8359375,-31.25,-20.99609375,-9.765625
4.0078125,-22.4609375,-29.78515625,-15.625,-24.90234375
4.01171875,-12.6953125,-22.94921875,-16.6015625,-10.25390625
4.015625,-13.18359375,-23.92578125,-28.3203125,-9.27734375
4.01953125,-25.390625,-28.80859375,-27.83203125,-16.6015625
4.0234375,-31.73828125,-23.92578125,-18.06640625,-13.18359375
4.02734375,-30.76171875,-25.87890625,-24.4140625,-20.5078125
4.03125,-24.4140625,-21.97265625,-21.484375,-21.484375
4.03515625,-41.9921875,-24.4140625,-11.23046875,-22.4609375
4.0390625,-53.22265625,-39.0625,-26.85546875,-30.2734375
4.04296875,-43.9453125,-40.52734375,-31.73828125,-26.85546875
4.046875,-41.015625,-37.109375,-12.6953125,-16.11328125
4.05078125,-53.7109375,-36.62109375,-21.97265625,-15.625
4.0546875,-49.8046875,-36.1328125,-27.83203125,-9.27734375
4.05859375,-31.25,-34.1796875,-4.8828125,-12.20703125
4.0625,-24.4140625,-28.80859375,1.953125,-11.71875
4.06640625,-14.6484375,-27.83203125,-9.27734375,-4.39453125
4.0703125,-12.20703125,-27.34375,-13.18359375,-7.8125
4.07421875,-8.30078125,-21.97265625,-14.16015625,-10.25390625
4.078125,-9.765625,-26.85546875,-17.08984375,-16.11328125
4.08203125,-14.6484375,-29.78515625,-21.484375,-14.16015625
4.0859375,-14.6484375,-27.34375,-26.3671875,-18.5546875
4.08984375,-15.13671875,-30.76171875,-29.78515625,-30.76171875
4.09375,-20.01953125,-29.78515625,-35.64453125,-33.203125
4.09765625,-17.578125,-21.484375,-26.3671875,-27.34375
4.1015625,-18.06640625,-20.5078125,-25.390625,-26.3671875
4.10546875,-21.97265625,-19.04296875,-23.4375,-38.0859375
4.109375,-19.04296875,-19.04296875,-23.4375,-44.921875
4.11328125,-20.5078125,-16.6015625,-28.80859375,-28.3203125
4.1171875,-29.78515625,-16.6015625,-24.90234375,-27.34375
4.12109375,-27.34375,-20.01953125,-24.4140625,-37.59765625
4.125,-29.78515625,-18.5546875,-31.25,-44.921875
4.12890625,-32.2265625,-16.11328125,-32.2265625,-37.109375
4.1328125,-7.8125,-14.16015625,-12.20703125,-17.578125
4.13671875,-17.08984375,-25.87890625,-19.53125,-31.25
4.140625,-46.875,-39.0625,-39.0625,-48.828125
4.14453125,-44.43359375,-35.64453125,-25.390625,-37.109375
4.1484375,-34.1796875,-26.85546875,-10.7421875,-19.53125
4.15234375,-24.90234375,-23.4375,-14.6484375,-0.48828125
4.15625,-21.97265625,-30.76171875,-21.97265625,12.20703125
4.16015625,-29.78515625,-36.1328125,-30.76171875,2.9296875
4.1640625,-31.73828125,-26.85546875,-30.2734375,-1.46484375
4.16796875,-34.66796875,-21.97265625,-28.80859375,-1.953125
4.171875,-42.48046875,-34.1796875,-17.578125,-2.44140625
4.17578125,-39.0625,-38.0859375,-8.30078125,6.8359375
4.1796875,-27.83203125,-20.99609375,-13.18359375,-0.48828125
4.18359375,-36.1328125,-16.6015625,-15.13671875,6.34765625
4.1875,-52.24609375,-36.1328125,-28.80859375,20.99609375
4.19140625,-47.8515625,-30.76171875,-23.4375,22.4609375
4.1953125,-32.2265625,-15.625,-13.18359375,-10.7421875
4.19921875,-25.390625,-18.5546875,-38.0859375,-35.64453125
4.203125,-22.4609375,-14.6484375,-55.17578125,-11.23046875
4.20703125,-21.484375,-10.7421875,-37.59765625,-41.50390625
4.2109375,-33.69140625,-20.99609375,-20.01953125,-91.796875
4.21484375,-26.85546875,-21.484375,-13.671875,-66.89453125
4.21875,3.41796875,-5.37109375,-13.671875,-42.48046875
4.22265625,-2.9296875,-16.6015625,-16.11328125,-61.03515625
4.2265625,-26.3671875,-29.78515625,-36.1328125,-72.75390625
4.23046875,-21.97265625,-21.97265625,-39.55078125,-58.59375
4.234375,-9.27734375,-23.92578125,-19.04296875,-35.64453125
4.23828125,-11.23046875,-23.4375,-16.11328125,-28.80859375
4.2421875,-24.4140625,-26.85546875,-16.6015625,-44.921875
4.24609375,-30.2734375,-36.62109375,-16.6015625,-53.22265625
4.25,-23.4375,-33.69140625,-20.5078125,-43.45703125
4.25390625,-20.01953125,-29.296875,-20.5078125,-25.390625
4.2578125,-18.06640625,-26.85546875,-18.5546875,-28.80859375
4.26171875,-15.625,-22.4609375,-20.5078125,-31.73828125
4.265625,-20.01953125,-20.01953125,-17.08984375,-20.5078125
4.26953125,-27.83203125,-26.3671875,-24.90234375,-18.06640625
4.2734375,-21.484375,-25.87890625,-25.87890625,-15.13671875
4.27734375,-10.7421875,-16.11328125,-18.06640625,-4.39453125
4.28125,-20.99609375,-21.484375,-15.625,-4.8828125
4.28515625,-26.85546875,-28.3203125,-13.18359375,-5.859375
4.2890625,-31.73828125,-30.2734375,-24.90234375,-10.7421875
4.29296875,-46.875,-33.203125,-37.109375,-15.625
4.296875,-41.015625,-33.69140625,-33.69140625,-8.30078125
4.30078125,-18.06640625,-28.3203125,-30.76171875,-3.90625
4.3046875,-12.20703125,-22.94921875,-21.97265625,-3.41796875
4.30859375,-0.9765625,-15.13671875,-0.48828125,9.765625
4.3125,20.99609375,-6.34765625,9.27734375,23.4375
4.31640625,10.25390625,-19.53125,1.953125,19.04296875
4.3203125,6.8359375,-22.94921875,-7.32421875,5.37109375
4.32421875,13.671875,-18.5546875,-14.6484375,-9.765625
4.328125,2.9296875,-29.296875,-27.83203125,-23.4375
4.33203125,-20.01953125,-35.15625,-31.25,-31.73828125
4.3359375,-28.80859375,-35.64453125,-20.5078125,-39.0625
4.33984375,-19.04296875,-29.296875,-24.4140625,-30.76171875
4.34375,-13.671875,-24.90234375,-26.85546875,-21.97265625
4.34765625,-11.23046875,-25.390625,-9.27734375,-26.3671875
4.3515625,-9.27734375,-22.4609375,-3.41796875,-24.4140625
4.35546875,-8.30078125,-24.4140625,-10.7421875,-18.5546875
4.359375,-2.9296875,-20.5078125,-13.18359375,-20.99609375
4.36328125,-8.7890625,-15.625,-19.04296875,-26.3671875
4.3671875,3.90625,-16.11328125,-24.90234375,-20.99609375
4.37109375,9.765625,-18.5546875,-29.296875,-13.671875
4.375,-15.13671875,-22.4609375,-37.109375,-21.97265625
4.37890625,-22.4609375,-20.5078125,-23.92578125,-23.4375
4.3828125,-20.5078125,-26.85546875,-15.625,-18.5546875
4.38671875,-30.76171875,-39.55078125,-22.4609375,-25.390625
4.390625,-40.0390625,-38.0859375,-21.484375,-22.4609375
4.39453125,-38.57421875,-34.1796875,-16.11328125,-16.11328125
4.3984375,-41.015625,-34.1796875,-9.765625,-14.6484375
4.40234375,-40.52734375,-33.203125,-8.7890625,-20.99609375
4.40625,-32.71484375,-30.76171875,-9.765625,-25.87890625
4.41015625,-21.97265625,-20.99609375,-6.8359375,-28.3203125
4.4140625,-22.94921875,-17.08984375,-18.5546875,-28.3203125
4.41796875,-15.13671875,-18.5546875,-27.34375,-18.5546875
4.421875,0.48828125,-9.27734375,-11.23046875,-8.30078125
4.42578125,-10.7421875,-14.16015625,-11.23046875,-2.44140625
4.4296875,-31.73828125,-32.2265625,-22.94921875,-18.5546875
4.43359375,-36.62109375,-36.1328125,-24.90234375,-42.48046875
4.4375,-27.83203125,-28.80859375,-10.7421875,-39.55078125
4.44140625,-16.6015625,-22.4609375,-7.8125,-35.15625
4.4453125,-11.23046875,-23.92578125,-17.578125,-31.25
4.44921875,-8.30078125,-24.4140625,-22.94921875,-20.99609375
4.453125,-10.7421875,-27.83203125,-26.85546875,-37.59765625
4.45703125,-1.46484375,-23.92578125,-17.08984375,-28.80859375
4.4609375,16.6015625,-10.7421875,-2.44140625,-8.30078125
4.46484375,16.6015625,-7.32421875,-4.8828125,-19.04296875
4.46875,-9.765625,-19.04296875,-27.83203125,-34.1796875
4.47265625,-35.64453125,-24.90234375,-33.69140625,-39.55078125
4.4765625,-38.57421875,-24.90234375,-19.53125,-28.3203125
4.48046875,-31.73828125,-25.87890625,-12.6953125,-21.484375
4.484375,-27.83203125,-20.99609375,-16.6015625,-16.6015625
4.48828125,-21.484375,-19.04296875,-21.484375,-5.37109375
4.4921875,-15.625,-17.578125,-21.97265625,-2.9296875
4.49609375,-21.484375,-19.53125,-22.94921875,-8.30078125
4.5,-19.53125,-18.5546875,-21.484375,2.44140625
4.50390625,-5.859375,-14.16015625,-1.46484375,6.34765625
4.5078125,-0.9765625,-13.671875,-1.953125,-13.671875
4.51171875,-4.39453125,-13.671875,-20.5078125,-6.34765625
4.515625,-8.7890625,-12.6953125,-14.16015625,-6.8359375
4.51953125,-14.16015625,-16.6015625,-14.16015625,-39.55078125
4.5234375,-17.08984375,-29.78515625,-28.3203125,-44.921875
4.52734375,-30.2734375,-36.62109375,-37.59765625,-45.41015625
4.53125,-16.11328125,-22.4609375,-25.87890625,-41.9921875
4.53515625,-1.46484375,-17.578125,-24.90234375,-40.0390625
4.5390625,-15.13671875,-23.4375,-24.90234375,-38.0859375
4.54296875,-19.53125,-29.78515625,-19.53125,-37.59765625
4.546875,-28.3203125,-32.2265625,-25.87890625,-38.57421875
4.55078125,-32.71484375,-28.80859375,-30.2734375,-42.48046875
4.5546875,-20.01953125,-18.06640625,-26.85546875,-38.57421875
4.55859375,-17.578125,-13.18359375,-21.97265625,-25.87890625
4.5625,-36.1328125,-22.94921875,-24.4140625,-36.62109375
4.56640625,-41.015625,-21.484375,-22.4609375,-38.0859375
4.5703125,-32.2265625,-13.671875,-29.78515625,-24.90234375
4.57421875,-28.3203125,-7.8125,-30.76171875,-21.97265625
4.578125,-30.76171875,-12.6953125,-25.87890625,-20.01953125
4.58203125,-32.2265625,-19.04296875,-26.85546875,-19.53125
4.5859375,-34.66796875,-17.08984375,-19.53125,-13.18359375
4.58984375,-42.48046875,-21.484375,-11.71875,-3.41796875
4.59375,-41.9921875,-24.4140625,-14.16015625,0.48828125
4.59765625,-44.921875,-27.34375,-21.484375,6.34765625
4.6015625,-43.9453125,-31.73828125,-28.80859375,-41.015625
4.60546875,-39.0625,-25.87890625,-23.4375,-78.61328125
4.609375,-33.69140625,-23.92578125,-11.71875,-62.5
4.61328125,-24.90234375,-23.4375,-11.23046875,-51.7578125
4.6171875,-27.83203125,-20.5078125,-16.11328125,-35.64453125
4.62109375,-30.76171875,-27.34375,-17.578125,-36.1328125
4.625,-21.97265625,-23.4375,-13.671875,-31.73828125
4.62890625,-18.06640625,-14.6484375,-16.6015625,-35.15625
4.6328125,-26.85546875,-15.13671875,-13.671875,-46.875
4.63671875,-39.0625,-14.16015625,-8.30078125,-41.50390625
4.640625,-55.6640625,-19.04296875,-21.484375,-55.6640625
4.64453125,-65.91796875,-9.27734375,-13.671875,-65.91796875
4.6484375,-70.3125,-0.48828125,-6.8359375,-73.2421875
4.65234375,-79.58984375,-8.7890625,-16.11328125,-90.33203125
4.65625,-109.375,-12.6953125,-24.4140625,-105.46875
4.66015625,-131.34765625,-1.46484375,-18.5546875,-117.67578125
4.6640625,-132.8125,3.90625,-16.11328125,-136.23046875
4.66796875,-133.30078125,1.953125,-19.04296875,-143.06640625
4.671875,-159.1796875,-1.46484375,-9.765625,-158.203125
4.67578125,-182.6171875,-10.7421875,1.46484375,-174.31640625
4.6796875,-177.734375,-13.671875,-6.8359375,-177.734375
4.68359375,-177.734375,-19.04296875,-20.5078125,-183.59375
4.6875,-185.546875,-24.4140625,-17.578125,-178.7109375
4.69140625,-176.26953125,-19.53125,-21.97265625,-170.8984375
4.6953125,-157.71484375,-11.23046875,-34.66796875,-156.25
4.69921875,-142.08984375,-8.7890625,-24.4140625,-134.765625
4.703125,-137.20703125,-11.23046875,-17.08984375,-123.53515625
4.70703125,-135.25390625,-10.25390625,-13.671875,-115.72265625
4.7109375,-132.32421875,-13.18359375,-10.25390625,-118.65234375
4.71484375,-110.3515625,-14.6484375,-16.6015625,-119.140625
4.71875,-85.9375,-11.71875,-15.625,-101.5625
4.72265625,-71.77734375,-5.37109375,-16.6015625,-79.1015625
4.7265625,-71.2890625,-14.16015625,-33.69140625,-73.2421875
4.73046875,-67.3828125,-21.97265625,-32.2265625,-72.265625
4.734375,-60.546875,-23.92578125,-21.97265625,-71.77734375
4.73828125,-54.6875,-23.92578125,-25.87890625,-73.2421875
4.7421875,-33.69140625,-17.08984375,-28.3203125,-47.8515625
4.74609375,-19.53125,-19.04296875,-24.90234375,-31.73828125
4.75,-18.06640625,-21.97265625,-17.578125,-21.484375
4.75390625,-17.08984375,-21.97265625,-10.25390625,-11.71875
4.7578125,-1.953125,-20.01953125,-11.23046875,-8.7890625
4.76171875,15.13671875,-13.671875,-24.4140625,-1.46484375
4.765625,19.53125,-5.859375,-17.08984375,15.13671875
4.76953125,20.5078125,-8.30078125,-11.23046875,23.92578125
4.7734375,24.4140625,-14.6484375,-23.92578125,18.5546875
4.77734375,35.15625,-14.6484375,-18.5546875,21.97265625
4.78125,26.85546875,-17.578125,-23.4375,21.484375
4.78515625,2.44140625,-24.90234375,-31.73828125,2.44140625
4.7890625,-2.9296875,-32.2265625,-32.2265625,-1.46484375
4.79296875,6.34765625,-28.80859375,-32.2265625,8.7890625
4.796875,14.6484375,-20.01953125,-17.578125,11.71875
4.80078125,17.578125,-20.5078125,-13.18359375,17.08984375
4.8046875,15.625,-18.5546875,-17.578125,19.53125
4.80859375,18.06640625,-14.6484375,-14.6484375,25.390625
4.8125,33.69140625,-18.5546875,-14.6484375,37.59765625
4.81640625,35.15625,-26.85546875,-23.92578125,39.55078125
4.8203125,28.3203125,-28.3203125,-27.34375,28.3203125
4.82421875,38.0859375,-20.5078125,-21.97265625,29.296875
4.828125,33.69140625,-15.625,-19.53125,36.1328125
4.83203125,25.390625,-20.99609375,-18.06640625,35.64453125
4.8359375,29.296875,-21.484375,-11.71875,36.1328125
4.83984375,25.390625,-24.90234375,-9.765625,35.15625
4.84375,19.04296875,-33.203125,-23.4375,22.94921875
4.84765625,13.18359375,-25.87890625,-29.296875,11.71875
4.8515625,17.578125,-20.99609375,-27.34375,13.18359375
4.85546875,8.30078125,-25.390625,-21.97265625,4.8828125
4.859375,7.8125,-16.6015625,-23.92578125,4.39453125
4.86328125,20.99609375,-13.18359375,-25.390625,16.6015625
4.8671875,18.06640625,-21.97265625,-4.8828125,23.92578125
4.87109375,0.48828125,-35.64453125,-4.39453125,5.859375
4.875,-11.23046875,-47.8515625,-17.578125,-12.6953125
4.87890625,3.90625,-32.71484375,-15.13671875,-0.9765625
4.8828125,14.6484375,-15.13671875,-17.578125,8.30078125
4.88671875,6.34765625,-22.4609375,-22.94921875,-4.8828125
4.890625,-2.9296875,-30.76171875,-19.53125,-14.16015625
4.89453125,0.0,-27.34375,-30.2734375,-6.8359375
4.8984375,10.25390625,-27.34375,-34.1796875,2.9296875
4.90234375,21.97265625,-22.4609375,-25.87890625,8.30078125
4.90625,33.203125,-17.578125,-29.78515625,19.04296875
4.91015625,32.71484375,-21.97265625,-21.484375,23.4375
4.9140625,29.296875,-21.484375,-8.7890625,28.3203125
4.91796875,26.85546875,-20.01953125,-16.11328125,36.62109375
4.921875,27.83203125,-17.08984375,-12.6953125,35.64453125
4.92578125,21.484375,-21.97265625,-8.30078125,19.04296875
4.9296875,4.8828125,-26.85546875,-14.16015625,3.41796875
4.93359375,3.90625,-20.5078125,-15.13671875,12.6953125
4.9375,10.25390625,-21.97265625,-21.484375,12.6953125
4.94140625,-1.953125,-28.80859375,-26.3671875,-1.46484375
4.9453125,-6.8359375,-29.78515625,-21.97265625,-11.23046875
4.94921875,-8.7890625,-35.64453125,-28.80859375,-14.6484375
4.953125,-7.8125,-35.64453125,-27.83203125,-16.11328125
4.95703125,-4.39453125,-27.83203125,-13.18359375,-6.34765625
4.9609375,0.48828125,-20.01953125,-6.8359375,9.27734375
4.96484375,11.23046875,-16.11328125,-13.671875,10.25390625
4.96875,1.46484375,-19.53125,-17.08984375,2.44140625
4.97265625,-18.06640625,-25.87890625,-11.71875,-3.90625
4.9765625,-24.90234375,-32.71484375,-17.578125,-6.8359375
4.98046875,-15.13671875,-29.296875,-26.3671875,-4.8828125
4.984375,-2.9296875,-24.90234375,-20.01953125,4.8828125
4.98828125,-3.90625,-26.3671875,-16.11328125,2.44140625
4.9921875,7.8125,-22.94921875,-25.390625,10.25390625
4.99609375,1.46484375,-30.76171875,-26.3671875,0.48828125
5.0,-9.765625,-38.57421875,-26.85546875,-8.30078125
5.00390625,-6.8359375,-30.2734375,-14.16015625,-2.44140625
5.0078125,-2.9296875,-29.78515625,-7.32421875,-11.23046875
5.01171875,3.41796875,-35.15625,-23.92578125,-4.39453125
5.015625,6.8359375,-28.80859375,-24.90234375,8.30078125
5.01953125,13.671875,-19.53125,-21.97265625,18.5546875
5.0234375,9.765625,-17.578125,-12.6953125,22.94921875
5.02734375,3.41796875,-20.5078125,-16.6015625,7.8125
5.03125,8.7890625,-18.5546875,-22.4609375,7.8125
5.03515625,9.27734375,-18.06640625,-15.13671875,9.765625
5.0390625,7.8125,-22.94921875,-16.6015625,2.9296875
5.04296875,6.34765625,-24.90234375,-19.04296875,1.953125
5.046875,-2.9296875,-22.4609375,-15.13671875,2.9296875
5.05078125,-9.765625,-21.484375,-13.671875,-2.9296875
5.0546875,-20.01953125,-24.4140625,-20.5078125,-12.20703125
5.05859375,-25.87890625,-33.203125,-25.390625,-19.04296875
5.0625,-38.0859375,-35.64453125,-20.01953125,-15.13671875
5.06640625,-41.015625,-31.73828125,-11.71875,-18.06640625
5.0703125,-28.80859375,-31.73828125,-16.6015625,-20.5078125
5.07421875,-23.4375,-29.78515625,-18.06640625,-17.08984375
5.078125,-19.04296875,-20.99609375,-14.6484375,-16.11328125
5.08203125,-10.25390625,-20.01953125,-23.92578125,-4.39453125
5.0859375,-10.7421875,-18.5546875,-23.4375,0.0
5.08984375,-12.6953125,-13.18359375,-15.13671875,-8.30078125
5.09375,-18.06640625,-16.6015625,-20.99609375,-19.53125
5.09765625,-26.3671875,-20.01953125,-26.85546875,-29.78515625
5.1015625,-26.3671875,-20.99609375,-20.01953125,-25.390625
5.10546875,-9.765625,-18.5546875,-15.13671875,-15.625
5.109375,3.90625,-15.625,-14.16015625,-16.6015625
5.11328125,-0.48828125,-17.578125,-14.6484375,-11.71875
5.1171875,2.44140625,-18.5546875,-23.4375,-8.30078125
5.12109375,8.30078125,-14.6484375,-25.390625,-6.34765625
5.125,5.859375,-12.6953125,-13.671875,7.32421875
5.12890625,-3.41796875,-16.11328125,-15.625,11.23046875
5.1328125,-1.953125,-20.5078125,-20.99609375,9.27734375
5.13671875,2.9296875,-21.484375,-27.34375,4.39453125
5.140625,13.18359375,-17.578125,-31.73828125,1.953125
5.14453125,11.71875,-18.06640625,-23.4375,-5.859375
5.1484375,-18.5546875,-24.90234375,-19.53125,-21.97265625
5.15234375,-28.80859375,-26.85546875,-20.5078125,-32.71484375
5.15625,-15.625,-27.83203125,-22.4609375,-31.25
5.16015625,-17.578125,-27.83203125,-20.01953125,-26.85546875
5.1640625,-21.484375,-20.01953125,-13.18359375,-24.90234375
5.16796875,-18.06640625,-13.18359375,-16.11328125,-21.484375
5.171875,-26.85546875,-18.5546875,-27.34375,-34.1796875
5.17578125,-40.52734375,-26.85546875,-32.2265625,-45.41015625
5.1796875,-29.78515625,-24.90234375,-30.2734375,-36.62109375
5.18359375,-11.23046875,-21.97265625,-24.90234375,-24.90234375
5.1875,-19.04296875,-28.80859375,-30.76171875,-23.4375
5.19140625,-26.85546875,-27.83203125,-38.0859375,-25.390625
5.1953125,-19.53125,-24.4140625,-21.484375,-18.5546875
5.19921875,-12.20703125,-29.78515625,-5.859375,-15.625
5.203125,-20.01953125,-34.66796875,-11.71875,-24.90234375
5.20703125,-17.578125,-38.0859375,-9.765625,-17.578125
5.2109375,-12.20703125,-41.015625,-13.18359375,-15.13671875
5.21484375,-15.13671875,-42.96875,-14.16015625,-19.53125
5.21875,-1.953125,-37.109375,-5.859375,-11.23046875
5.22265625,4.39453125,-33.69140625,-8.7890625,-5.859375
5.2265625,-4.8828125,-32.71484375,-11.71875,-3.90625
5.23046875,0.48828125,-29.296875,-17.578125,-5.37109375
5.234375,-3.41796875,-28.80859375,-18.06640625,-6.8359375
5.23828125,-9.27734375,-28.80859375,-22.4609375,-5.859375
5.2421875,9.765625,-20.5078125,-23.4375,5.859375
5.24609375,8.30078125,-21.484375,-14.16015625,8.7890625
5.25,-18.5546875,-30.76171875,-21.484375,-8.7890625
5.25390625,-22.94921875,-28.80859375,-20.99609375,-13.18359375
5.2578125,-23.92578125,-28.80859375,-14.16015625,-12.6953125
5.26171875,-37.109375,-31.25,-13.671875,-25.390625
5.265625,-25.390625,-30.2734375,-15.625,-26.85546875
5.26953125,-9.765625,-25.390625,-14.6484375,-21.484375
5.2734375,-17.08984375,-20.5078125,-10.7421875,-20.5078125
5.27734375,-16.11328125,-20.99609375,-7.32421875,-12.20703125
5.28125,-3.90625,-20.01953125,-4.8828125,-3.90625
5.28515625,-2.9296875,-15.625,-8.30078125,-1.46484375
5.2890625,-11.71875,-16.11328125,-19.04296875,-8.7890625
5.29296875,-15.625,-25.390625,-19.53125,-12.20703125
5.296875,1.46484375,-15.625,3.41796875,-5.37109375
5.30078125,0.9765625,-11.23046875,0.48828125,-16.11328125
5.3046875,-9.27734375,-24.4140625,-13.671875,-16.11328125
5.30859375,0.9765625,-17.578125,-6.34765625,0.48828125
5.3125,-4.39453125,-13.18359375,-7.32421875,8.30078125
5.31640625,-12.20703125,-19.04296875,-19.53125,-1.46484375
5.3203125,-19.04296875,-24.90234375,-22.4609375,-15.625
5.32421875,-20.01953125,-28.80859375,-12.6953125,-16.6015625
5.328125,-12.6953125,-22.4609375,-11.23046875,-16.6015625
5.33203125,-11.71875,-20.01953125,-15.625,-16.6015625
5.3359375,-2.9296875,-17.08984375,-17.578125,-13.671875
5.33984375,-0.48828125,-18.06640625,-18.5546875,-13.671875
5.34375,-4.8828125,-20.99609375,-13.671875,-8.7890625
5.34765625,0.0,-12.6953125,-9.27734375,-2.9296875
5.3515625,-4.39453125,-18.06640625,-13.671875,-20.01953125
5.35546875,-14.16015625,-25.390625,-15.625,-24.4140625
5.359375,-18.06640625,-21.484375,-9.765625,-8.30078125
5.36328125,-12.20703125,-13.671875,-10.7421875,-1.46484375
5.3671875,-6.34765625,-10.7421875,-14.16015625,4.8828125
5.37109375,-12.6953125,-16.11328125,-13.671875,-2.44140625
5.375,-22.4609375,-22.94921875,-18.06640625,-11.23046875
5.37890625,-29.296875,-24.4140625,-22.4609375,-13.671875
5.3828125,-24.4140625,-20.01953125,-23.92578125,-16.11328125
5.38671875,-31.73828125,-25.390625,-16.6015625,-20.5078125
5.390625,-25.87890625,-27.34375,4.39453125,-19.53125
5.39453125,-31.73828125,-28.3203125,-9.765625,-23.4375
5.3984375,-41.015625,-33.203125,-28.3203125,-25.390625
5.40234375,-30.2734375,-29.78515625,-15.625,-26.3671875
5.40625,-37.109375,-23.4375,-9.27734375,-27.83203125
5.41015625,-37.59765625,-32.2265625,-15.13671875,-25.87890625
5.4140625,-27.83203125,-37.109375,-17.578125,-20.99609375
5.41796875,-18.06640625,-31.25,-20.01953125,-17.08984375
5.421875,-7.32421875,-25.87890625,-17.08984375,-6.8359375
5.42578125,5.859375,-15.13671875,-8.30078125,7.32421875
5.4296875,6.8359375,-17.578125,-11.71875,2.44140625
5.43359375,9.765625,-30.76171875,-23.4375,-3.90625
5.4375,9.27734375,-31.73828125,-20.5078125,-8.30078125
5.44140625,1.953125,-24.4140625,-18.06640625,-28.3203125
5.4453125,-2.44140625,-27.34375,-35.15625,-35.64453125
5.44921875,1.46484375,-22.94921875,-39.0625,-24.4140625
5.453125,-11.71875,-20.01953125,-25.390625,-20.99609375
5.45703125,-20.99609375,-22.94921875,-20.5078125,-25.87890625
5.4609375,-22.4609375,-22.94921875,-24.90234375,-33.69140625
5.46484375,-26.85546875,-27.34375,-21.97265625,-31.73828125
5.46875,-26.3671875,-27.34375,-14.6484375,-22.4609375
5.47265625,-34.66796875,-27.34375,-18.06640625,-25.87890625
5.4765625,-39.0625,-31.25,-28.3203125,-28.3203125
5.48046875,-29.78515625,-23.4375,-28.80859375,-11.71875
5.484375,-29.296875,-25.87890625,-34.1796875,-20.99609375
5.48828125,-34.66796875,-34.66796875,-31.73828125,-39.55078125
5.4921875,-45.8984375,-31.25,-18.5546875,-32.2265625
5.49609375,-45.8984375,-26.85546875,-24.90234375,-29.296875
5.5,-29.296875,-24.90234375,-31.73828125,-28.3203125
5.50390625,-23.92578125,-26.85546875,-25.87890625,-25.87890625
5.5078125,-16.6015625,-29.296875,-19.53125,-31.73828125
5.51171875,-2.44140625,-24.4140625,-18.06640625,-21.484375
5.515625,5.37109375,-21.484375,-14.16015625,-1.953125
5.51953125,-7.32421875,-27.34375,-10.7421875,-10.25390625
5.5234375,-11.71875,-29.296875,-17.578125,-22.4609375
5.52734375,9.27734375,-14.6484375,-26.85546875,-9.27734375
5.53125,11.71875,-6.34765625,-22.94921875,-6.8359375
5.53515625,-2.9296875,-19.53125,-20.01953125,-26.85546875
5.5390625,-15.625,-24.90234375,-20.01953125,-30.2734375
5.54296875,-22.94921875,-28.3203125,-25.390625,-31.73828125
5.546875,-22.94921875,-29.78515625,-30.2734375,-33.69140625
5.55078125,-17.578125,-27.34375,-26.3671875,-30.2734375
5.5546875,-14.6484375,-24.90234375,-30.2734375,-25.87890625
5.55859375,-26.85546875,-17.08984375,-25.87890625,-28.80859375
5.5625,-37.109375,-25.87890625,-22.4609375,-27.34375
5.56640625,-27.83203125,-28.3203125,-23.92578125,-8.30078125
5.5703125,-18.06640625,-12.6953125,-13.18359375,-0.9765625
5.57421875,-15.13671875,-16.6015625,-5.859375,-7.8125
5.578125,-20.5078125,-19.53125,-18.06640625,-15.625
5.58203125,-24.4140625,-21.97265625,-28.80859375,-9.27734375
5.5859375,-16.6015625,-26.3671875,-17.578125,-2.44140625
5.58984375,-21.97265625,-24.90234375,-20.99609375,-12.20703125
5.59375,-24.4140625,-28.80859375,-26.3671875,-14.6484375
5.59765625,-18.5546875,-28.3203125,-13.18359375,-18.5546875
5.6015625,-13.18359375,-20.99609375,-6.8359375,-21.97265625
5.60546875,-5.37109375,-22.94921875,-13.671875,-11.71875
5.609375,-11.23046875,-30.2734375,-23.4375,-16.11328125
5.61328125,-13.671875,-33.69140625,-27.34375,-29.296875
5.6171875,-10.25390625,-30.2734375,-11.23046875,-28.80859375
5.62109375,-11.23046875,-23.92578125,-13.18359375,-30.2734375
5.625,-3.90625,-20.5078125,-23.4375,-32.71484375
5.62890625,-0.48828125,-15.625,-16.11328125,-25.87890625
5.6328125,-3.90625,-15.13671875,-15.13671875,-27.34375
5.63671875,-2.44140625,-11.23046875,-22.4609375,-30.2734375
5.640625,12.20703125,-6.8359375,-18.5546875,-24.90234375
5.64453125,2.44140625,-15.625,-21.484375,-35.15625
5.6484375,-17.08984375,-27.83203125,-36.1328125,-44.43359375
5.65234375,-9.765625,-26.85546875,-25.390625,-30.2734375
5.65625,-8.30078125,-24.90234375,-15.625,-20.01953125
5.66015625,-19.04296875,-32.71484375,-17.578125,-18.5546875
5.6640625,-9.765625,-29.78515625,-14.6484375,-1.953125
5.66796875,-2.44140625,-18.06640625,-7.8125,12.20703125
5.671875,-0.9765625,-20.99609375,-3.41796875,-0.48828125
5.67578125,-11.71875,-25.87890625,-16.11328125,-13.18359375
5.6796875,-27.34375,-31.73828125,-26.3671875,-16.11328125
5.68359375,-33.69140625,-31.73828125,-12.20703125,-18.06640625
5.6875,-43.9453125,-32.2265625,-8.7890625,-25.390625
5.69140625,-52.24609375,-41.015625,-21.484375,-46.38671875
5.6953125,-54.6875,-40.52734375,-27.34375,-56.15234375
5.69921875,-47.36328125,-34.1796875,-23.4375,-50.29296875
5.703125,-42.96875,-32.2265625,-20.99609375,-45.41015625
5.70703125,-53.22265625,-40.0390625,-24.4140625,-48.33984375
5.7109375,-47.8515625,-37.109375,-31.73828125,-46.38671875
5.71484375,-46.875,-31.73828125,-39.55078125,-37.109375
5.71875,-41.9921875,-26.3671875,-35.15625,-37.59765625
5.72265625,-22.4609375,-17.08984375,-23.92578125,-38.0859375
5.7265625,-18.5546875,-19.04296875,-18.06640625,-41.015625
5.73046875,-21.484375,-25.87890625,-24.90234375,-41.015625
5.734375,-20.01953125,-28.3203125,-30.2734375,-31.73828125
5.73828125,-18.5546875,-25.390625,-22.94921875,-24.90234375
5.7421875,-5.859375,-18.06640625,-24.4140625,-19.04296875
5.74609375,-1.953125,-17.578125,-30.2734375,-17.578125
5.75,-8.30078125,-15.13671875,-23.4375,-20.5078125
5.75390625,-4.8828125,-18.06640625,-28.3203125,-29.296875
5.7578125,-16.6015625,-22.94921875,-28.3203125,-39.55078125
5.76171875,-18.06640625,-21.97265625,-8.7890625,-35.15625
5.765625,-17.578125,-20.5078125,-1.46484375,-40.52734375
5.76953125,-24.90234375,-20.5078125,-9.27734375,-52.24609375
5.7734375,-30.76171875,-26.85546875,-15.625,-44.921875
5.77734375,-40.0390625,-30.76171875,-30.76171875,-32.71484375
5.78125,-44.921875,-29.78515625,-37.59765625,-27.34375
5.78515625,-38.0859375,-27.34375,-23.4375,-23.4375
5.7890625,-39.55078125,-22.4609375,-20.01953125,-21.97265625
5.79296875,-36.62109375,-20.5078125,-25.390625,-25.390625
5.796875,-31.73828125,-24.4140625,-21.97265625,-22.94921875
5.80078125,-41.015625,-28.3203125,-18.06640625,-17.08984375
5.8046875,-40.0390625,-26.85546875,-18.5546875,-10.25390625
5.80859375,-35.64453125,-21.97265625,-22.4609375,-9.27734375
5.8125,-33.69140625,-24.4140625,-25.87890625,-15.625
5.81640625,-48.828125,-31.25,-21.97265625,-29.296875
5.8203125,-53.22265625,-31.25,-17.08984375,-31.25
5.82421875,-45.8984375,-25.390625,-19.53125,-32.2265625
5.828125,-34.1796875,-17.578125,-22.4609375,-25.390625
5.83203125,-27.34375,-19.53125,-21.484375,-26.3671875
5.8359375,-33.69140625,-23.92578125,-27.34375,-45.8984375
5.83984375,-26.3671875,-27.34375,-25.390625,-44.43359375
5.84375,-23.92578125,-23.4375,-24.90234375,-38.0859375
5.84765625,-36.1328125,-20.99609375,-37.109375,-41.9921875
5.8515625,-38.57421875,-25.390625,-32.2265625,-52.734375
5.85546875,-36.62109375,-32.2265625,-25.87890625,-59.5703125
5.859375,-35.64453125,-26.85546875,-20.01953125,-64.453125
5.86328125,-41.9921875,-21.484375,-9.765625,-64.94140625
5.8671875,-51.26953125,-20.01953125,-10.25390625,-58.59375
5.87109375,-52.734375,-19.04296875,-10.25390625,-63.4765625
5.875,-58.10546875,-20.01953125,-12.20703125,-77.63671875
5.87890625,-77.63671875,-17.578125,-17.578125,-90.8203125
5.8828125,-87.890625,-20.99609375,-9.27734375,-90.8203125
5.88671875,-85.9375,-13.671875,-4.39453125,-93.75
5.890625,-108.88671875,-9.765625,-13.671875,-113.76953125
5.89453125,-126.953125,-12.6953125,-18.5546875,-126.46484375
5.8984375,-132.8125,-18.5546875,-15.13671875,-129.8828125
5.90234375,-158.69140625,-21.97265625,-9.765625,-143.5546875
5.90625,-165.0390625,-9.765625,-1.953125,-153.80859375
5.91015625,-172.8515625,-2.9296875,-4.39453125,-159.1796875
5.9140625,-197.75390625,-9.27734375,0.0,-161.1328125
5.91796875,-192.3828125,-16.11328125,-0.9765625,-162.59765625
5.921875,-186.03515625,-21.97265625,-8.30078125,-166.50390625
5.92578125,-188.4765625,-24.4140625,-8.30078125,-166.9921875
5.9296875,-181.15234375,-23.4375,-16.11328125,-157.2265625
5.93359375,-166.50390625,-21.484375,-23.92578125,-148.4375
5.9375,-141.6015625,-18.5546875,-23.4375,-148.92578125
5.94140625,-123.046875,-13.18359375,-10.7421875,-128.41796875
5.9453125,-109.86328125,-8.30078125,-4.8828125,-113.76953125
5.94921875,-101.5625,-13.671875,-20.5078125,-109.375
5.953125,-91.796875,-18.5546875,-29.296875,-99.12109375
5.95703125,-80.56640625,-20.01953125,-26.3671875,-99.12109375
5.9609375,-73.73046875,-20.5078125,-18.5546875,-74.70703125
5.96484375,-52.734375,-16.6015625,-17.08984375,-53.22265625
5.96875,-29.296875,-9.765625,-10.25390625,-35.15625
5.97265625,-22.94921875,-14.16015625,-16.11328125,-28.3203125
5.9765625,-25.390625,-28.80859375,-32.2265625,-35.15625
5.98046875,-17.08984375,-30.76171875,-33.203125,-22.94921875
5.984375,-7.8125,-27.83203125,-36.62109375,-13.671875
5.98828125,-15.625,-31.73828125,-36.62109375,-10.25390625
5.9921875,-7.8125,-30.2734375,-34.1796875,-9.27734375
5.99609375,-1.46484375,-26.85546875,-44.43359375,-1.953125
6.0,5.859375,-26.3671875,-40.0390625,4.8828125
6.00390625,3.41796875,-25.390625,-14.6484375,-3.41796875
6.0078125,-12.6953125,-26.3671875,-13.18359375,-14.16015625
6.01171875,-12.6953125,-27.34375,-30.2734375,-10.25390625
6.015625,-7.32421875,-28.3203125,-38.57421875,-4.8828125
6.01953125,-0.9765625,-20.01953125,-29.78515625,-7.32421875
6.0234375,16.6015625,-13.18359375,-13.671875,10.7421875
6.02734375,20.01953125,-22.94921875,-20.01953125,21.97265625
6.03125,24.4140625,-25.390625,-38.57421875,5.859375
6.03515625,30.2734375,-20.5078125,-37.109375,9.765625
6.0390625,21.484375,-23.92578125,-29.296875,19.04296875
6.04296875,2.9296875,-30.76171875,-30.2734375,5.859375
6.046875,3.41796875,-26.3671875,-23.92578125,2.44140625
6.05078125,21.484375,-22.4609375,-16.11328125,15.625
6.0546875,15.625,-27.83203125,-22.4609375,11.23046875
6.05859375,8.7890625,-27.83203125,-27.34375,9.27734375
6.0625,11.71875,-24.90234375,-19.53125,16.11328125
6.06640625,23.92578125,-20.01953125,-17.578125,15.625
6.0703125,31.73828125,-23.92578125,-21.484375,17.578125
6.07421875,21.97265625,-30.76171875,-25.390625,6.8359375
6.078125,19.53125,-24.90234375,-23.92578125,3.90625
6.08203125,27.83203125,-18.5546875,-32.2265625,11.23046875
6.0859375,33.203125,-17.578125,-41.9921875,7.32421875
6.08984375,32.2265625,-18.5546875,-28.80859375,10.25390625
6.09375,23.92578125,-22.4609375,-18.06640625,19.04296875
6.09765625,29.296875,-25.390625,-28.80859375,15.13671875
6.1015625,26.3671875,-19.53125,-24.90234375,12.20703125
6.10546875,28.80859375,-10.7421875,-10.7421875,20.99609375
6.109375,37.109375,-11.23046875,-8.30078125,28.3203125
6.11328125,26.3671875,-14.6484375,-12.6953125,29.296875
6.1171875,24.4140625,-20.5078125,-21.97265625,24.90234375
6.12109375,27.34375,-23.4375,-24.90234375,10.7421875
6.125,26.85546875,-19.04296875,-26.3671875,7.8125
6.12890625,15.625,-23.4375,-30.76171875,15.13671875
6.1328125,12.6953125,-17.08984375,-32.71484375,16.11328125
6.13671875,7.8125,-13.18359375,-20.5078125,10.7421875
6.140625,8.7890625,-17.578125,-15.13671875,11.23046875
6.14453125,21.484375,-7.32421875,-14.16015625,21.97265625
6.1484375,16.11328125,-3.41796875,-5.37109375,32.2265625
6.15234375,4.8828125,-15.13671875,-7.8125,20.01953125
6.15625,3.41796875,-20.5078125,-14.6484375,4.39453125
6.16015625,2.44140625,-14.6484375,-12.6953125,4.8828125
6.1640625,3.41796875,-15.625,-5.859375,11.71875
6.16796875,-0.48828125,-22.4609375,-8.7890625,2.44140625
6.171875,5.859375,-19.04296875,-16.11328125,-6.8359375
6.17578125,12.20703125,-15.625,-13.671875,0.9765625
6.1796875,6.34765625,-17.08984375,-12.6953125,7.8125
6.18359375,10.7421875,-22.4609375,-15.625,13.671875
6.1875,6.34765625,-26.3671875,-22.4609375,2.9296875
6.19140625,-0.48828125,-25.87890625,-26.3671875,-6.8359375
6.1953125,6.8359375,-26.85546875,-13.18359375,2.44140625
6.19921875,7.8125,-29.296875,-4.8828125,4.39453125
6.203125,0.48828125,-27.34375,-13.18359375,4.8828125
6.20703125,-5.37109375,-30.76171875,-18.06640625,-9.27734375
6.2109375,-2.9296875,-30.76171875,-20.99609375,-5.859375
6.21484375,13.18359375,-19.53125,-18.06640625,16.6015625
6.21875,18.5546875,-22.94921875,-8.7890625,18.06640625
6.22265625,26.3671875,-18.06640625,-0.48828125,21.97265625
6.2265625,21.97265625,-13.18359375,1.953125,20.5078125
6.23046875,9.27734375,-20.5078125,-13.671875,2.44140625
6.234375,8.7890625,-26.3671875,-19.04296875,1.46484375
6.23828125,5.859375,-22.4609375,-10.7421875,8.7890625
6.2421875,-2.9296875,-22.4609375,-24.90234375,2.44140625
6.24609375,1.46484375,-26.3671875,-30.2734375,-1.953125
6.25,9.765625,-22.4609375,-20.99609375,1.953125
6.25390625,1.46484375,-17.578125,-22.4609375,1.953125
6.2578125,0.0,-16.11328125,-20.01953125,-0.48828125
6.26171875,3.41796875,-13.671875,-18.06640625,3.41796875
6.265625,1.953125,-19.04296875,-21.484375,-1.953125
6.26953125,0.0,-28.3203125,-19.53125,-12.6953125
6.2734375,-9.765625,-19.53125,-14.6484375,-14.6484375
6.27734375,-11.23046875,-10.7421875,-12.6953125,0.0
6.28125,2.44140625,-18.5546875,-15.625,2.44140625
6.28515625,6.8359375,-17.08984375,-18.06640625,-5.859375
6.2890625,-7.8125,-19.04296875,-25.390625,-14.6484375
6.29296875,-12.6953125,-27.34375,-35.64453125,-21.484375
6.296875,-12.20703125,-29.78515625,-35.64453125,-14.16015625
6.30078125,-9.27734375,-24.90234375,-19.04296875,-6.8359375
6.3046875,-2.44140625,-12.6953125,-12.20703125,-0.48828125
6.30859375,3.41796875,-15.13671875,-15.13671875,2.9296875
6.3125,4.39453125,-16.11328125,-8.30078125,-2.44140625
6.31640625,-11.71875,-20.01953125,-14.16015625,-16.6015625
6.3203125,-19.53125,-24.4140625,-17.578125,-23.92578125
6.32421875,-18.06640625,-28.3203125,-16.11328125,-25.390625
6.328125,-4.39453125,-26.85546875,-19.04296875,-21.484375
6.33203125,-7.32421875,-24.4140625,-24.4140625,-11.23046875
6.3359375,-15.13671875,-27.34375,-31.25,-12.6953125
6.33984375,-7.32421875,-27.34375,-20.99609375,-12.6953125
6.34375,-2.9296875,-27.34375,-16.11328125,-17.578125
6.34765625,-5.859375,-26.85546875,-20.99609375,-16.11328125
6.3515625,-12.6953125,-28.80859375,-22.94921875,-2.9296875
6.35546875,-16.11328125,-28.80859375,-22.94921875,-6.34765625
6.359375,-9.765625,-23.4375,-17.578125,-9.765625
6.36328125,4.39453125,-17.578125,-12.6953125,4.8828125
6.3671875,4.39453125,-13.671875,-6.8359375,21.97265625
6.37109375,6.8359375,-16.11328125,-22.94921875,18.06640625
6.375,7.32421875,-19.04296875,-26.3671875,8.7890625
6.37890625,-2.9296875,-25.390625,4.39453125,11.23046875
6.3828125,-13.18359375,-29.296875,0.48828125,-8.30078125
6.38671875,-20.5078125,-31.73828125,-30.2734375,-23.4375
6.390625,-20.01953125,-30.2734375,-32.2265625,-16.11328125
6.39453125,-15.625,-25.390625,-22.94921875,-13.18359375
6.3984375,-12.6953125,-25.390625,-25.390625,-6.34765625
6.40234375,-1.46484375,-22.94921875,-18.5546875,-1.953125
6.40625,-1.46484375,-13.671875,-12.6953125,-6.8359375
6.41015625,-16.11328125,-17.08984375,-17.578125,-5.37109375
6.4140625,-18.5546875,-20.5078125,-26.85546875,-0.48828125
6.41796875,-6.34765625,-18.06640625,-31.25,-3.41796875
6.421875,-8.7890625,-18.5546875,-25.87890625,-3.41796875
6.42578125,-20.01953125,-20.99609375,-20.99609375,1.46484375
6.4296875,-11.23046875,-16.11328125,-13.18359375,-3.41796875
6.43359375,-12.20703125,-18.5546875,-10.7421875,-8.7890625
6.4375,-31.25,-26.85546875,-21.97265625,-17.08984375
6.44140625,-38.0859375,-31.73828125,-19.53125,-26.3671875
6.4453125,-31.25,-30.2734375,-16.11328125,-15.13671875
6.44921875,-30.2734375,-33.203125,-22.4609375,-1.46484375
6.453125,-27.34375,-38.0859375,-31.25,-2.9296875
6.45703125,-10.7421875,-17.578125,-15.625,-0.48828125
6.4609375,-13.18359375,-11.23046875,-5.859375,-7.8125
6.46484375,-32.71484375,-34.1796875,-24.90234375,-24.90234375
6.46875,-50.78125,-39.0625,-18.5546875,-38.57421875
6.47265625,-51.7578125,-38.0859375,-8.7890625,-44.921875
6.4765625,-53.22265625,-42.48046875,-13.671875,-49.31640625
6.48046875,-66.40625,-43.9453125,-13.671875,-52.24609375
6.484375,-61.5234375,-38.57421875,-3.90625,-40.52734375
6.48828125,-57.12890625,-36.62109375,1.46484375,-43.45703125
6.4921875,-54.19921875,-41.015625,4.39453125,-47.8515625
6.49609375,-52.734375,-38.0859375,19.53125,-30.76171875
6.5,-86.9140625,-52.24609375,14.16015625,-54.6875
6.50390625,-103.515625,-58.59375,9.27734375,-60.546875
6.5078125,-81.0546875,-43.45703125,19.53125,-50.78125
6.51171875,-80.56640625,-46.875,16.11328125,-64.453125
6.515625,-87.890625,-55.6640625,16.6015625,-62.5
6.51953125,-74.70703125,-55.6640625,17.578125,-46.875
6.5234375,-69.3359375,-47.8515625,19.53125,-35.15625
6.52734375,-66.89453125,-46.38671875,22.4609375,-32.2265625
6.53125,-57.6171875,-40.0390625,11.71875,-27.34375
6.53515625,-37.109375,-35.64453125,-1.953125,-13.671875
6.5390625,-35.15625,-40.52734375,-1.46484375,-9.27734375
6.54296875,-54.6875,-43.9453125,3.90625,-0.48828125
6.546875,-63.96484375,-48.33984375,-0.9765625,-8.7890625
6.55078125,-60.546875,-44.43359375,4.39453125,-44.43359375
6.5546875,-58.10546875,-43.45703125,10.7421875,-44.43359375
6.55859375,-43.45703125,-43.9453125,0.0,-22.94921875
6.5625,-19.53125,-33.69140625,-13.671875,-17.08984375
6.56640625,-26.3671875,-31.73828125,-5.37109375,-24.4140625
6.5703125,-41.9921875,-35.15625,6.34765625,-25.390625
6.57421875,-26.85546875,-22.4609375,12.20703125,-15.625
6.578125,-10.7421875,-14.6484375,13.671875,-7.32421875
6.58203125,-33.203125,-32.2265625,-6.34765625,-25.390625
6.5859375,-35.15625,-36.1328125,-11.23046875,-28.80859375
6.58984375,-21.484375,-29.296875,-11.23046875,-21.97265625
6.59375,-22.4609375,-33.69140625,-26.85546875,-21.484375
6.59765625,-20.5078125,-35.64453125,-22.4609375,-9.765625
6.6015625,-20.5078125,-28.3203125,-2.9296875,-4.8828125
6.60546875,-22.94921875,-29.296875,-11.23046875,-5.859375
6.609375,-14.16015625,-30.2734375,-11.23046875,1.953125
6.61328125,1.46484375,-17.08984375,15.625,13.671875
6.6171875,-15.13671875,-20.01953125,2.9296875,9.765625
6.62109375,-19.53125,-24.4140625,-14.16015625,12.20703125
6.625,-12.6953125,-25.390625,-8.30078125,11.23046875
6.62890625,-18.5546875,-31.25,-6.8359375,-0.9765625
6.6328125,-15.13671875,-30.76171875,-6.34765625,0.9765625
6.63671875,-5.859375,-29.78515625,-7.32421875,2.44140625
6.640625,-5.37109375,-25.390625,-10.7421875,-0.48828125
6.64453125,-10.25390625,-20.5078125,-19.53125,4.8828125
6.6484375,-9.765625,-24.90234375,-30.2734375,-0.9765625
6.65234375,-11.23046875,-30.76171875,-22.4609375,-12.20703125
6.65625,-5.37109375,-26.3671875,-15.625,-4.39453125
6.66015625,-3.90625,-19.04296875,-12.6953125,1.46484375
6.6640625,-20.5078125,-34.66796875,-10.7421875,-13.18359375
6.66796875,-32.71484375,-47.8515625,-23.92578125,-28.80859375
6.671875,-23.4375,-37.59765625,-31.25,-29.296875
6.67578125,-11.71875,-29.78515625,-22.94921875,-14.16015625
6.6796875,-5.859375,-24.4140625,-10.25390625,-2.9296875
6.68359375,-1.953125,-21.484375,-5.859375,-0.9765625
6.6875,-4.39453125,-24.90234375,-8.7890625,6.8359375
6.69140625,-11.71875,-29.296875,-4.8828125,9.27734375
6.6953125,5.859375,-7.8125,3.41796875,20.01953125
6.69921875,-3.41796875,-13.18359375,-14.16015625,3.41796875
6.703125,-21.484375,-35.15625,-20.99609375,-20.01953125
6.70703125,-5.859375,-26.3671875,-13.18359375,-10.25390625
6.7109375,-3.90625,-20.99609375,-16.6015625,2.9296875
6.71484375,-13.18359375,-24.4140625,-15.625,4.8828125
6.71875,-22.94921875,-26.3671875,-15.13671875,0.48828125
6.72265625,-19.53125,-22.94921875,-7.8125,-0.48828125
6.7265625,-7.32421875,-17.08984375,-1.953125,0.9765625
6.73046875,-9.765625,-17.578125,-10.7421875,2.44140625
6.734375,2.44140625,-6.8359375,-1.46484375,14.16015625
6.73828125,9.27734375,-0.9765625,-1.46484375,14.6484375
6.7421875,-12.20703125,-19.53125,-45.41015625,-13.18359375
6.74609375,3.41796875,-20.99609375,-44.43359375,-5.37109375
6.75,19.53125,-11.71875,-11.71875,17.578125
6.75390625,-2.44140625,-16.11328125,-12.20703125,-7.8125
6.7578125,-33.203125,-33.203125,-19.04296875,-40.0390625
6.76171875,-34.1796875,-37.109375,-10.25390625,-39.0625
6.765625,-33.69140625,-32.2265625,-12.6953125,-38.57421875
6.76953125,-33.69140625,-31.73828125,-14.16015625,-38.57421875
6.7734375,-6.8359375,-12.20703125,-1.953125,-9.27734375
6.77734375,1.46484375,-1.953125,-17.08984375,-2.9296875
6.78125,-19.04296875,-20.99609375,-46.875,-14.6484375
6.78515625,-37.59765625,-28.80859375,-32.71484375,-15.625
6.7890625,-34.1796875,-19.04296875,-2.9296875,-22.4609375
6.79296875,-29.296875,-20.99609375,-11.71875,-35.15625
6.796875,-31.25,-32.71484375,-28.3203125,-40.0390625
6.80078125,-30.76171875,-34.66796875,-30.2734375,-39.55078125
6.8046875,-35.15625,-33.203125,-27.83203125,-41.50390625
6.80859375,-17.08984375,-28.3203125,-25.87890625,-37.109375
6.8125,-4.8828125,-22.94921875,-28.80859375,-31.25
6.81640625,4.8828125,-9.27734375,-20.5078125,-8.7890625
6.8203125,1.46484375,-8.30078125,-20.5078125,-10.25390625
6.82421875,-8.30078125,-18.06640625,-25.390625,-18.5546875
6.828125,-7.8125,-21.484375,-30.2734375,-16.6015625
6.83203125,-12.20703125,-19.04296875,-30.2734375,-24.90234375
6.8359375,-17.08984375,-20.5078125,-12.20703125,-25.390625
6.83984375,-21.484375,-27.83203125,-6.8359375,-23.92578125
6.84375,-25.87890625,-25.390625,-5.859375,-20.5078125
6.84765625,-21.484375,-17.578125,-7.32421875,-12.20703125
6.8515625,-15.13671875,-15.13671875,-23.4375,-9.27734375
6.85546875,-19.04296875,-18.5546875,-21.484375,-15.13671875
6.859375,-18.06640625,-22.4609375,-7.8125,-6.8359375
6.86328125,-11.23046875,-28.3203125,-1.46484375,10.25390625
6.8671875,-14.6484375,-25.390625,-12.6953125,-5.859375
6.87109375,-33.203125,-17.578125,-28.80859375,-32.71484375
6.875,-41.9921875,-20.99609375,-29.296875,-38.0859375
6.87890625,-42.48046875,-21.97265625,-26.3671875,-41.9921875
6.8828125,-30.2734375,-10.25390625,-26.3671875,-39.55078125
6.88671875,-33.203125,-15.625,-31.25,-41.50390625
6.890625,-41.9921875,-22.94921875,-37.109375,-52.24609375
6.89453125,-35.15625,-10.25390625,-45.8984375,-49.31640625
6.8984375,-27.83203125,-1.46484375,-47.36328125,-38.57421875
6.90234375,-24.90234375,-5.37109375,-43.9453125,-40.0390625
6.90625,-18.5546875,-9.27734375,-31.25,-35.15625
6.91015625,-30.76171875,-17.08984375,-16.6015625,-43.9453125
6.9140625,-22.94921875,-16.6015625,-16.6015625,-43.9453125
6.91796875,-12.20703125,-17.08984375,-24.4140625,-21.97265625
6.921875,-35.15625,-21.97265625,-34.66796875,-24.90234375
6.92578125,-36.62109375,-14.6484375,-34.66796875,-17.08984375
6.9296875,-29.296875,-16.11328125,-21.484375,-8.30078125
6.93359375,-34.66796875,-24.90234375,-19.04296875,-14.16015625
6.9375,-47.8515625,-29.296875,-32.2265625,-29.296875
6.94140625,-56.15234375,-30.76171875,-30.2734375,-48.828125
6.9453125,-38.0859375,-20.99609375,-20.99609375,-40.52734375
6.94921875,-39.55078125,-16.6015625,-21.484375,-29.296875
6.953125,-48.33984375,-24.90234375,-30.76171875,-34.1796875
6.95703125,-27.83203125,-16.11328125,-29.296875,-27.83203125
6.9609375,-21.97265625,-8.7890625,-17.08984375,-29.296875
6.96484375,-35.15625,-23.92578125,-23.4375,-36.62109375
6.96875,-32.71484375,-24.90234375,-23.4375,-33.69140625
6.97265625,-20.99609375,-22.94921875,-20.5078125,-32.71484375
6.9765625,-16.6015625,-22.94921875,-28.80859375,-19.53125
6.98046875,-16.6015625,-17.08984375,-26.3671875,-14.6484375
6.984375,-17.08984375,-22.4609375,-27.83203125,-23.4375
6.98828125,-4.39453125,-27.83203125,-22.94921875,-21.484375
6.9921875,-0.9765625,-23.4375,-12.6953125,-13.18359375
6.99609375,1.953125,-14.6484375,-9.27734375,-6.8359375
7.0,-6.34765625,-13.671875,-12.6953125,-17.08984375
7.00390625,-24.4140625,-17.578125,-25.87890625,-31.73828125
7.0078125,-26.3671875,-21.484375,-34.1796875,-31.25
7.01171875,-20.5078125,-25.87890625,-33.69140625,-28.3203125
7.015625,-22.94921875,-31.73828125,-33.69140625,-30.76171875
7.01953125,-17.578125,-20.5078125,-18.06640625,-23.4375
7.0234375,-12.20703125,-13.18359375,-11.23046875,-15.625
7.02734375,-4.8828125,-18.5546875,-25.390625,-21.484375
7.03125,-2.44140625,-15.13671875,-21.97265625,-18.5546875
7.03515625,-11.23046875,-19.04296875,-20.5078125,-22.4609375
7.0390625,-25.390625,-24.90234375,-24.4140625,-28.80859375
7.04296875,-27.83203125,-24.4140625,-22.4609375,-20.5078125
7.046875,-18.06640625,-19.04296875,-18.06640625,-12.20703125
7.05078125,-9.765625,-11.71875,-16.6015625,-17.08984375
7.0546875,-12.20703125,-11.23046875,-23.92578125,-26.3671875
7.05859375,-21.484375,-22.4609375,-32.2265625,-24.90234375
7.0625,-12.6953125,-19.53125,-30.2734375,-14.6484375
7.06640625,-8.7890625,-14.16015625,-28.3203125,-12.20703125
7.0703125,-16.6015625,-21.484375,-28.3203125,-21.97265625
7.07421875,-16.6015625,-24.90234375,-21.484375,-29.296875
7.078125,-22.4609375,-25.87890625,-18.06640625,-33.203125
7.08203125,-20.99609375,-16.6015625,-17.08984375,-13.18359375
7.0859375,-11.23046875,-9.765625,-21.97265625,-5.37109375
7.08984375,-17.08984375,-13.671875,-15.625,-10.25390625
7.09375,-16.6015625,-14.6484375,0.0,-9.27734375
7.09765625,-10.25390625,-13.671875,0.0,-12.6953125
7.1015625,-24.90234375,-23.92578125,-24.90234375,-23.92578125
7.10546875,-38.57421875,-33.69140625,-41.015625,-44.43359375
7.109375,-44.43359375,-31.25,-31.73828125,-49.8046875
7.11328125,-41.50390625,-23.92578125,-13.671875,-37.59765625
7.1171875,-33.69140625,-24.4140625,-11.23046875,-29.78515625
7.12109375,-30.2734375,-27.83203125,-18.5546875,-25.87890625
7.125,-10.7421875,-16.6015625,-17.08984375,-15.625
7.12890625,0.48828125,-9.765625,-22.94921875,-7.8125
7.1328125,-16.11328125,-17.08984375,-31.73828125,-10.7421875
7.13671875,-29.296875,-21.97265625,-26.85546875,-23.92578125
7.140625,-24.4140625,-19.53125,-21.97265625,-31.73828125
7.14453125,-14.6484375,-12.6953125,-20.99609375,-27.34375
7.1484375,-4.8828125,-11.23046875,-24.90234375,-14.16015625
7.15234375,-0.9765625,-15.625,-29.296875,-1.46484375
7.15625,-16.11328125,-21.484375,-27.34375,-10.25390625
7.16015625,-20.01953125,-21.97265625,-21.97265625,-29.296875
7.1640625,-18.5546875,-16.11328125,-17.08984375,-25.390625
7.16796875,-14.6484375,-13.671875,-9.27734375,-13.18359375
7.171875,-21.484375,-24.4140625,-15.625,-27.34375
7.17578125,-31.73828125,-34.1796875,-37.109375,-42.48046875
7.1796875,-26.3671875,-27.83203125,-36.1328125,-37.109375
7.18359375,-30.76171875,-27.83203125,-21.97265625,-37.109375
7.1875,-38.57421875,-27.34375,-18.06640625,-41.9921875
7.19140625,-36.62109375,-22.94921875,-25.87890625,-38.57421875
7.1953125,-29.296875,-19.04296875,-15.625,-31.25
7.19921875,-31.25,-21.484375,-12.6953125,-29.296875
7.203125,-33.203125,-28.3203125,-22.94921875,-36.62109375
7.20703125,-25.87890625,-25.87890625,-25.390625,-28.3203125
7.2109375,-29.296875,-24.90234375,-22.94921875,-17.578125
7.21484375,-17.08984375,-16.6015625,-20.01953125,-8.7890625
7.21875,-2.44140625,-13.18359375,-14.16015625,0.0
7.22265625,-21.484375,-25.87890625,-19.04296875,-19.04296875
7.2265625,-30.2734375,-25.390625,-32.71484375,-40.52734375
7.23046875,-20.01953125,-15.625,-32.71484375,-33.203125
7.234375,-18.5546875,-20.99609375,-21.484375,-26.3671875
7.23828125,-4.8828125,-29.296875,-12.6953125,-30.76171875
7.2421875,-7.8125,-19.53125,-17.578125,-21.97265625
7.24609375,-17.578125,-10.25390625,-21.97265625,-20.01953125
7.25,-22.94921875,-18.5546875,-21.484375,-24.4140625
7.25390625,-22.94921875,-14.6484375,-20.01953125,-18.06640625
7.2578125,-14.16015625,-13.18359375,-14.16015625,-11.23046875
7.26171875,4.39453125,-23.92578125,2.44140625,4.8828125
7.265625,14.6484375,-11.71875,-5.37109375,12.20703125
7.26953125,-28.3203125,-9.27734375,-39.55078125,-30.76171875
7.2734375,-44.921875,-15.625,-50.29296875,-59.5703125
7.27734375,-37.109375,-12.6953125,-39.0625,-59.5703125
7.28125,-33.203125,-4.8828125,-37.109375,-52.24609375
7.28515625,-40.52734375,-5.37109375,-52.734375,-54.6875
7.2890625,-47.36328125,-7.8125,-49.31640625,-60.546875
7.29296875,-46.875,-4.8828125,-30.2734375,-56.15234375
7.296875,-48.33984375,-10.7421875,-26.85546875,-57.12890625
7.30078125,-30.2734375,-2.44140625,-30.76171875,-39.0625
7.3046875,-20.01953125,4.39453125,-27.34375,-21.484375
7.30859375,-24.4140625,0.0,-22.4609375,-21.97265625
7.3125,-25.390625,-1.953125,-34.1796875,-19.04296875
7.31640625,-25.87890625,-9.27734375,-35.64453125,-20.5078125
7.3203125,-25.390625,-18.06640625,-30.76171875,-24.90234375
7.32421875,-19.04296875,-20.99609375,-42.96875,-24.4140625
7.328125,-7.8125,-14.16015625,-46.875,-13.18359375
7.33203125,-9.27734375,-12.20703125,-37.109375,-13.18359375
7.3359375,-4.39453125,-11.23046875,-34.66796875,-19.53125
7.33984375,-2.9296875,-11.23046875,-38.0859375,-20.5078125
7.34375,-4.39453125,-13.671875,-34.66796875,-20.5078125
7.34765625,-7.32421875,-13.18359375,-33.69140625,-23.92578125
7.3515625,-0.48828125,-10.7421875,-29.78515625,-29.78515625
7.35546875,-2.44140625,-17.08984375,-36.62109375,-39.0625
7.359375,-10.25390625,-18.5546875,-39.55078125,-39.0625
7.36328125,-12.20703125,-14.6484375,-36.1328125,-37.109375
7.3671875,-6.34765625,-15.625,-38.57421875,-35.15625
7.37109375,-4.8828125,-12.20703125,-32.71484375,-30.76171875
7.375,-20.5078125,-15.625,-36.62109375,-34.1796875
7.37890625,-22.4609375,-17.578125,-24.4140625,-28.3203125
7.3828125,-10.25390625,-15.13671875,-11.71875,-18.5546875
7.38671875,-13.18359375,-25.390625,-31.25,-28.3203125
7.390625,-24.4140625,-31.25,-34.66796875,-36.1328125
7.39453125,-18.06640625,-17.578125,-14.16015625,-23.4375
7.3984375,-7.32421875,-4.8828125,-9.765625,-10.7421875
7.40234375,-11.23046875,-19.04296875,-21.97265625,-11.71875
7.40625,-24.4140625,-30.2734375,-20.01953125,-20.5078125
7.41015625,-24.90234375,-24.4140625,-16.6015625,-27.34375
7.4140625,-18.06640625,-16.11328125,-17.08984375,-8.7890625
7.41796875,-13.18359375,-15.13671875,-17.578125,0.9765625
7.421875,-5.37109375,-15.625,-22.4609375,-12.6953125
7.42578125,-6.8359375,-13.671875,-23.4375,-19.53125
7.4296875,-15.13671875,-19.04296875,-26.85546875,-13.18359375
7.43359375,-19.04296875,-17.578125,-30.2734375,-10.25390625
7.4375,-24.4140625,-17.08984375,-28.3203125,-14.6484375
7.44140625,-16.6015625,-18.5546875,-23.4375,-3.41796875
7.4453125,-5.859375,-18.06640625,-12.20703125,6.34765625
7.44921875,-28.80859375,-32.2265625,-14.16015625,-23.92578125
7.453125,-53.22265625,-34.1796875,-18.06640625,-35.15625
7.45703125,-38.57421875,-18.5546875,-14.16015625,-17.08984375
7.4609375,-27.83203125,-19.53125,-16.11328125,-15.13671875
7.46484375,-25.87890625,-29.78515625,-15.625,-19.53125
7.46875,-19.53125,-27.83203125,-19.53125,-20.5078125
7.47265625,-15.625,-18.5546875,-27.83203125,-19.53125
7.4765625,-17.578125,-22.4609375,-29.78515625,-22.4609375
7.48046875,-18.5546875,-24.90234375,-23.92578125,-26.85546875
7.484375,-10.25390625,-19.53125,-16.6015625,-32.71484375
7.48828125,-1.953125,-18.5546875,-22.94921875,-30.76171875
7.4921875,-5.37109375,-10.7421875,-24.90234375,-27.83203125
7.49609375,-6.34765625,-5.859375,-16.6015625,-24.4140625
7.5,-6.34765625,-18.5546875,-28.3203125,-22.4609375
7.50390625,-14.16015625,-27.34375,-43.45703125,-23.92578125
7.5078125,-22.4609375,-26.3671875,-40.0390625,-32.71484375
7.51171875,-16.6015625,-16.6015625,-31.25,-30.2734375
7.515625,-15.13671875,-14.6484375,-27.34375,-22.4609375
7.51953125,-18.5546875,-16.6015625,-13.18359375,-28.3203125
7.5234375,-21.484375,-12.6953125,-9.765625,-30.76171875
7.52734375,-29.78515625,-21.484375,-14.6484375,-30.2734375
7.53125,-41.9921875,-25.87890625,-14.6484375,-36.1328125
7.53515625,-44.43359375,-18.06640625,-21.97265625,-49.31640625
7.5390625,-27.34375,-10.25390625,-15.13671875,-48.33984375
7.54296875,-47.36328125,-10.7421875,-5.859375,-58.10546875
7.546875,-75.68359375,-16.11328125,-13.671875,-77.63671875
7.55078125,-83.984375,-10.25390625,-11.23046875,-85.44921875
7.5546875,-96.19140625,-10.25390625,-7.32421875,-92.28515625
7.55859375,-106.4453125,-21.97265625,-19.53125,-104.4921875
7.5625,-103.515625,-15.13671875,-15.625,-99.609375
7.56640625,-121.09375,-10.7421875,-1.953125,-109.86328125
7.5703125,-150.87890625,-16.6015625,-8.7890625,-142.08984375
7.57421875,-155.76171875,-20.99609375,-22.4609375,-161.1328125
7.578125,-142.578125,-8.7890625,-21.97265625,-157.71484375
7.58203125,-157.2265625,-2.44140625,-15.625,-153.3203125
7.5859375,-185.546875,-9.27734375,-13.18359375,-175.78125
7.58984375,-187.98828125,-18.06640625,-12.20703125,-185.546875
7.59375,-170.8984375,-18.06640625,-11.23046875,-168.45703125
7.59765625,-168.9453125,-21.484375,-19.53125,-173.828125
7.6015625,-171.38671875,-17.08984375,-17.08984375,-166.015625
7.60546875,-154.296875,-11.71875,-8.30078125,-143.06640625
7.609375,-138.18359375,-21.484375,-5.859375,-148.4375
7.61328125,-139.6484375,-25.87890625,-8.30078125,-150.87890625
7.6171875,-129.8828125,-25.390625,-13.18359375,-129.39453125
7.62109375,-104.00390625,-21.484375,-10.7421875,-108.3984375
7.625,-88.8671875,-19.04296875,-10.25390625,-109.375
7.62890625,-79.1015625,-23.92578125,-18.5546875,-91.30859375
7.6328125,-61.03515625,-27.83203125,-9.765625,-64.453125
7.63671875,-44.43359375,-29.78515625,-4.39453125,-53.7109375
7.640625,-45.41015625,-26.3671875,-12.6953125,-55.6640625
7.64453125,-40.52734375,-21.484375,-8.7890625,-42.96875
7.6484375,-26.85546875,-29.78515625,-13.18359375,-30.2734375
7.65234375,-35.15625,-36.1328125,-22.94921875,-28.80859375
7.65625,-29.78515625,-35.15625,-21.484375,-32.71484375
7.66015625,-19.04296875,-26.85546875,-12.6953125,-28.80859375
7.6640625,-23.4375,-22.4609375,-8.30078125,-20.99609375
7.66796875,-17.08984375,-23.4375,-16.11328125,-15.625
7.671875,-13.18359375,-21.484375,-26.85546875,-15.13671875
7.67578125,-1.46484375,-17.08984375,-22.4609375,-6.34765625
7.6796875,14.16015625,-20.99609375,-13.671875,7.8125
7.68359375,11.23046875,-25.87890625,-10.7421875,14.16015625
7.6875,3.41796875,-27.34375,-22.94921875,15.625
7.69140625,16.11328125,-25.87890625,-29.296875,13.671875
7.6953125,29.78515625,-26.85546875,-16.6015625,19.04296875
7.69921875,22.94921875,-31.25,-11.23046875,18.5546875
7.703125,18.5546875,-31.25,-16.11328125,13.671875
7.70703125,29.296875,-21.97265625,-17.578125,19.04296875
7.7109375,30.2734375,-22.94921875,-20.01953125,21.484375
7.71484375,23.92578125,-25.87890625,-32.2265625,20.99609375
7.71875,28.80859375,-24.4140625,-32.2265625,29.78515625
7.72265625,24.4140625,-19.04296875,-22.94921875,36.1328125
7.7265625,28.3203125,-7.8125,-15.625,41.015625
7.73046875,36.1328125,-12.20703125,-19.53125,38.0859375
7.734375,41.015625,-13.671875,-21.484375,42.48046875
7.73828125,35.15625,-10.7421875,-13.671875,38.0859375
7.7421875,10.7421875,-23.92578125,-18.06640625,13.18359375
7.74609375,-3.41796875,-38.0859375,-31.73828125,-2.9296875
7.75,1.953125,-36.62109375,-34.1796875,-1.953125
7.75390625,14.6484375,-31.25,-25.87890625,3.41796875
7.7578125,17.578125,-30.76171875,-23.4375,9.27734375
7.76171875,20.5078125,-31.73828125,-16.6015625,15.13671875
7.765625,21.97265625,-27.34375,-18.06640625,19.04296875
7.76953125,26.3671875,-22.4609375,-27.83203125,24.90234375
7.7734375,39.0625,-20.01953125,-25.87890625,36.62109375
7.77734375,46.38671875,-15.625,-29.296875,40.0390625
7.78125,36.1328125,-19.04296875,-21.97265625,34.1796875
7.78515625,14.6484375,-33.203125,-11.71875,15.13671875
7.7890625,-0.48828125,-40.0390625,-20.5078125,3.90625
7.79296875,-6.8359375,-36.62109375,-20.99609375,4.8828125
7.796875,17.08984375,-31.25,-16.6015625,11.71875
7.80078125,18.5546875,-22.4609375,-17.578125,22.4609375
7.8046875,0.9765625,-24.4140625,-24.4140625,22.4609375
7.80859375,5.859375,-27.34375,-25.87890625,15.13671875
7.8125,6.8359375,-25.390625,-15.625,14.16015625
7.81640625,10.25390625,-26.3671875,-23.4375,22.4609375
7.8203125,10.7421875,-22.94921875,-36.62109375,21.484375
7.82421875,5.859375,-21.97265625,-26.3671875,14.6484375
7.828125,9.765625,-23.4375,-14.16015625,12.6953125
7.83203125,6.8359375,-20.5078125,-14.6484375,13.671875
7.8359375,9.27734375,-19.04296875,-16.6015625,13.671875
7.83984375,10.25390625,-14.16015625,-5.859375,11.71875
7.84375,14.16015625,-12.20703125,-8.30078125,15.13671875
7.84765625,17.578125,-17.578125,-26.3671875,6.34765625
7.8515625,8.30078125,-19.53125,-27.83203125,2.44140625
7.85546875,5.37109375,-22.94921875,-26.3671875,2.9296875
7.859375,7.8125,-21.97265625,-28.3203125,2.44140625
7.86328125,14.6484375,-20.99609375,-28.80859375,7.8125
7.8671875,7.8125,-20.99609375,-24.90234375,3.90625
7.87109375,-2.44140625,-11.71875,-30.2734375,10.25390625
7.875,11.71875,-10.7421875,-16.11328125,19.04296875
7.87890625,11.71875,-12.20703125,-8.7890625,11.71875
7.8828125,7.8125,-14.6484375,-16.6015625,9.765625
7.88671875,11.23046875,-18.06640625,-13.671875,12.20703125
7.890625,12.6953125,-18.06640625,-19.53125,2.44140625
7.89453125,5.37109375,-21.97265625,-17.578125,-10.25390625
7.8984375,-12.20703125,-27.83203125,-25.390625,-15.13671875
7.90234375,-12.6953125,-28.3203125,-35.64453125,-15.625
7.90625,-4.8828125,-28.3203125,-20.01953125,-20.01953125
7.91015625,0.9765625,-16.6015625,-7.8125,-14.16015625
7.9140625,7.32421875,-9.765625,-16.11328125,-4.39453125
7.91796875,-9.27734375,-23.92578125,-21.484375,-18.5546875
7.921875,-16.11328125,-29.296875,-20.5078125,-30.2734375
7.92578125,-3.90625,-23.92578125,-18.5546875,-23.4375
7.9296875,20.01953125,-14.6484375,-13.18359375,1.46484375
7.93359375,3.41796875,-20.99609375,-20.99609375,-12.20703125
7.9375,-17.08984375,-27.34375,-35.64453125,-28.80859375
7.94140625,-6.8359375,-24.4140625,-31.25,-14.16015625
7.9453125,-1.953125,-27.34375,-20.01953125,-1.953125
7.94921875,2.44140625,-34.1796875,-15.13671875,11.71875
7.953125,6.34765625,-38.57421875,-20.5078125,17.08984375
7.95703125,11.23046875,-30.2734375,-22.4609375,16.6015625
7.9609375,7.32421875,-26.85546875,-22.4609375,5.37109375
7.96484375,4.39453125,-32.2265625,-23.92578125,10.25390625
7.96875,13.671875,-27.34375,-20.5078125,20.5078125
7.97265625,9.27734375,-27.83203125,-25.87890625,6.8359375
7.9765625,8.7890625,-28.3203125,-27.83203125,5.37109375
7.98046875,20.01953125,-24.4140625,-12.20703125,18.06640625
7.984375,15.13671875,-24.90234375,-12.6953125,14.16015625
7.98828125,12.6953125,-21.97265625,-22.4609375,-2.9296875
7.9921875,16.11328125,-21.484375,-14.6484375,-3.41796875
7.99609375,14.6484375,-26.85546875,-19.04296875,-0.48828125
8.0,13.671875,-28.80859375,-33.69140625,0.9765625
8.00390625,17.578125,-19.53125,-22.4609375,6.34765625
8.0078125,5.859375,-18.06640625,-12.6953125,1.46484375
8.01171875,-6.8359375,-28.80859375,-14.6484375,-3.41796875
8.015625,0.0,-24.4140625,-10.25390625,0.9765625
8.01953125,2.9296875,-19.53125,-14.6484375,2.44140625
8.0234375,6.8359375,-18.06640625,-17.578125,4.39453125
8.02734375,5.859375,-17.578125,-16.11328125,8.7890625
8.03125,-5.859375,-24.90234375,-20.01953125,0.48828125
8.03515625,2.44140625,-23.92578125,-11.23046875,-4.39453125
8.0390625,9.27734375,-14.16015625,-13.671875,4.8828125
8.04296875,2.9296875,-14.16015625,-21.97265625,7.32421875
8.046875,3.41796875,-19.53125,-22.4609375,-0.48828125
8.05078125,10.7421875,-20.99609375,-23.4375,0.0
8.0546875,4.39453125,-18.06640625,-28.3203125,2.9296875
8.05859375,5.859375,-7.32421875,-27.83203125,3.90625
8.0625,10.7421875,-5.859375,-7.32421875,6.8359375
8.06640625,-0.48828125,-16.11328125,7.32421875,6.34765625
8.0703125,-5.37109375,-22.4609375,-0.9765625,0.48828125
8.07421875,0.9765625,-20.01953125,-17.578125,-4.39453125
8.078125,-4.8828125,-20.5078125,-27.34375,-3.41796875
8.08203125,-6.8359375,-20.5078125,-13.671875,1.46484375
8.0859375,-6.34765625,-19.04296875,-6.8359375,2.9296875
8.08984375,-7.32421875,-23.4375,-20.5078125,0.9765625
8.09375,6.34765625,-10.25390625,-9.765625,12.6953125
8.09765625,-7.32421875,-3.90625,-6.8359375,7.8125
8.1015625,-16.6015625,-14.6484375,-23.4375,-7.32421875
8.10546875,-12.6953125,-21.484375,-24.4140625,-7.32421875
8.109375,-19.04296875,-23.4375,-12.20703125,-4.8828125
8.11328125,-12.20703125,-17.578125,-0.48828125,-0.9765625
8.1171875,0.48828125,-11.23046875,1.953125,4.39453125
8.12109375,-13.18359375,-21.97265625,-13.671875,-6.34765625
8.125,-28.80859375,-31.25,-26.3671875,-23.4375
8.12890625,-28.80859375,-31.73828125,-27.34375,-22.4609375
8.1328125,-24.90234375,-28.3203125,-28.3203125,-16.6015625
8.13671875,-24.90234375,-29.296875,-22.94921875,-12.20703125
8.140625,-20.5078125,-26.85546875,-15.625,-13.671875
8.14453125,-15.625,-20.99609375,-14.16015625,-17.578125
8.1484375,-20.01953125,-21.484375,-20.5078125,-18.06640625
8.15234375,-20.5078125,-28.3203125,-18.5546875,-21.97265625
8.15625,-19.53125,-29.78515625,-14.6484375,-17.08984375
8.16015625,-18.5546875,-25.390625,-14.6484375,-13.671875
8.1640625,-16.11328125,-22.94921875,-7.32421875,-19.04296875
8.16796875,-14.6484375,-22.94921875,-6.8359375,-13.18359375
8.171875,-12.20703125,-23.92578125,-8.30078125,-16.11328125
8.17578125,-6.8359375,-17.08984375,-2.44140625,-19.53125
8.1796875,-13.18359375,-18.06640625,-8.7890625,-16.6015625
8.18359375,-25.390625,-26.3671875,-12.6953125,-21.484375
8.1875,-32.2265625,-26.3671875,-20.99609375,-29.296875
8.19140625,-32.2265625,-24.90234375,-30.2734375,-36.1328125
8.1953125,-22.4609375,-20.99609375,-20.5078125,-32.2265625
8.19921875,-18.5546875,-19.04296875,-17.578125,-23.4375
8.203125,-20.01953125,-22.4609375,-19.53125,-17.578125
8.20703125,-16.11328125,-20.01953125,-15.13671875,-9.765625
8.2109375,-1.46484375,-14.16015625,-24.90234375,-4.8828125
8.21484375,-13.671875,-21.97265625,-17.08984375,-18.06640625
8.21875,-32.71484375,-32.2265625,4.8828125,-18.06640625
