Timestamp,TP9,AF7,AF8,TP10
120.01171875,92.28515625,-26.85546875,-13.671875,70.80078125
120.015625,88.37890625,-24.4140625,-17.08984375,51.7578125
120.01953125,102.05078125,-23.92578125,-19.04296875,92.7734375
120.0234375,124.0234375,-21.484375,-23.92578125,102.05078125
120.02734375,111.328125,-20.99609375,-21.97265625,85.9375
120.03125,123.046875,-21.484375,-15.13671875,93.75
120.03515625,137.20703125,-9.27734375,-7.32421875,103.02734375
120.0390625,124.0234375,4.39453125,-1.953125,88.37890625
120.04296875,110.3515625,-5.37109375,-16.11328125,86.9140625
120.046875,111.81640625,-11.23046875,-21.484375,109.375
120.05078125,107.91015625,-9.765625,-28.3203125,103.02734375
120.0546875,95.703125,-8.7890625,-43.9453125,101.07421875
120.05859375,103.02734375,-13.671875,-40.0390625,121.09375
120.0625,123.53515625,-13.671875,-44.921875,77.63671875
120.06640625,126.46484375,-11.23046875,-58.59375,75.1953125
120.0703125,103.02734375,-13.18359375,-49.8046875,109.86328125
120.07421875,114.74609375,-9.27734375,-49.31640625,93.75
120.078125,127.9296875,-12.6953125,-51.7578125,104.4921875
120.08203125,98.6328125,-19.04296875,-50.78125,107.91015625
120.0859375,118.65234375,-11.23046875,-58.10546875,65.91796875
120.08984375,113.28125,-6.8359375,-53.22265625,80.56640625
120.09375,95.21484375,-10.25390625,-41.9921875,113.28125
120.09765625,79.58984375,-20.5078125,-38.0859375,106.93359375
120.1015625,73.73046875,-24.4140625,-51.26953125,111.81640625
120.10546875,87.890625,-20.01953125,-69.82421875,106.93359375
120.109375,83.984375,-20.5078125,-68.84765625,86.9140625
120.11328125,79.58984375,-21.484375,-69.3359375,114.2578125
120.1171875,77.63671875,-17.578125,-74.70703125,83.984375
120.12109375,88.37890625,-12.20703125,-79.1015625,60.546875
120.125,103.515625,-7.32421875,-87.40234375,90.33203125
120.12890625,101.07421875,-10.7421875,-79.1015625,100.5859375
120.1328125,67.3828125,-12.20703125,-73.2421875,95.703125
120.13671875,59.5703125,-19.04296875,-70.3125,71.2890625
120.140625,92.28515625,-20.99609375,-73.73046875,91.796875
120.14453125,84.9609375,-13.671875,-76.66015625,88.37890625
120.1484375,94.7265625,-11.23046875,-67.87109375,74.21875
120.15234375,112.79296875,-7.8125,-64.453125,94.7265625
120.15625,101.07421875,-11.23046875,-62.01171875,97.16796875
120.16015625,87.40234375,-8.7890625,-59.08203125,89.35546875
120.1640625,85.9375,-14.16015625,-59.08203125,92.7734375
120.16796875,91.30859375,-15.625,-52.734375,89.84375
120.171875,86.42578125,5.859375,-48.828125,87.40234375
120.17578125,96.6796875,-3.90625,-42.96875,101.07421875
120.1796875,87.890625,-3.90625,-51.7578125,96.19140625
120.18359375,93.75,14.16015625,-55.6640625,86.9140625
120.1875,103.515625,2.44140625,-45.8984375,107.421875
120.19140625,94.7265625,1.953125,-44.43359375,117.67578125
120.1953125,80.078125,3.41796875,-41.9921875,100.5859375
120.19921875,55.17578125,4.39453125,-45.8984375,89.84375
120.203125,61.5234375,8.7890625,-60.546875,81.54296875
120.20703125,78.125,10.7421875,-55.6640625,77.1484375
120.2109375,73.2421875,12.20703125,-44.43359375,88.37890625
120.21484375,62.98828125,-7.8125,-49.8046875,71.2890625
120.21875,55.6640625,-35.64453125,-54.6875,64.453125
120.22265625,77.63671875,-5.37109375,-50.29296875,75.68359375
120.2265625,73.73046875,8.7890625,-35.64453125,60.05859375
120.23046875,91.30859375,0.48828125,-37.59765625,71.77734375
120.234375,87.40234375,11.23046875,-45.41015625,94.23828125
120.23828125,47.8515625,20.99609375,-42.96875,72.75390625
120.2421875,84.47265625,21.484375,-39.55078125,76.171875
120.24609375,109.375,20.99609375,-36.1328125,84.9609375
120.25,70.80078125,16.6015625,-40.0390625,62.01171875
120.25390625,81.54296875,18.06640625,-44.43359375,69.82421875
120.2578125,100.09765625,13.18359375,-43.45703125,102.5390625
120.26171875,97.65625,13.671875,-53.22265625,92.7734375
120.265625,106.4453125,9.27734375,-51.26953125,90.33203125
120.26953125,83.984375,-1.46484375,-52.734375,92.7734375
120.2734375,87.890625,10.25390625,-65.4296875,48.828125
120.27734375,104.4921875,16.6015625,-57.12890625,83.0078125
120.28125,96.19140625,5.37109375,-47.8515625,112.79296875
120.28515625,70.80078125,3.90625,-56.15234375,70.3125
120.2890625,60.05859375,12.6953125,-65.91796875,81.54296875
120.29296875,56.15234375,7.32421875,-61.5234375,118.65234375
120.296875,62.5,7.32421875,-58.59375,57.6171875
120.30078125,72.265625,6.8359375,-66.40625,25.87890625
120.3046875,55.6640625,-5.859375,-66.89453125,79.58984375
120.30859375,74.70703125,-6.34765625,-64.453125,79.58984375
120.3125,82.03125,-0.48828125,-59.5703125,68.359375
120.31640625,42.48046875,-14.6484375,-46.875,73.73046875
120.3203125,60.546875,-14.16015625,-41.015625,61.03515625
120.32421875,79.1015625,8.30078125,-49.8046875,41.50390625
120.328125,77.63671875,16.11328125,-50.29296875,64.94140625
120.33203125,100.09765625,17.578125,-49.8046875,71.77734375
120.3359375,94.7265625,12.20703125,-48.828125,68.359375
120.33984375,77.1484375,11.71875,-42.96875,58.59375
120.34375,75.1953125,14.6484375,-46.38671875,51.7578125
120.34765625,57.12890625,8.7890625,-43.45703125,50.78125
120.3515625,53.22265625,3.90625,-44.43359375,55.17578125
120.35546875,50.29296875,8.30078125,-52.24609375,60.546875
120.359375,85.44921875,2.44140625,-41.50390625,81.54296875
120.36328125,98.6328125,-0.9765625,-46.38671875,67.3828125
120.3671875,46.38671875,4.8828125,-55.17578125,60.05859375
120.37109375,27.83203125,8.7890625,-59.08203125,46.875
120.375,51.7578125,12.20703125,-54.6875,56.640625
120.37890625,55.6640625,2.44140625,-51.7578125,76.66015625
120.3828125,41.015625,-0.48828125,-67.87109375,41.015625
120.38671875,34.66796875,0.48828125,-58.10546875,48.33984375
120.390625,37.109375,4.8828125,-62.98828125,19.53125
120.39453125,51.26953125,12.20703125,-72.75390625,20.01953125
120.3984375,45.41015625,1.953125,-61.5234375,83.0078125
120.40234375,38.57421875,-3.90625,-60.05859375,51.7578125
120.40625,39.0625,-5.37109375,-54.6875,12.6953125
120.41015625,59.5703125,-1.953125,-63.96484375,34.1796875
120.4140625,44.921875,6.34765625,-69.82421875,52.734375
120.41796875,15.625,-1.46484375,-47.8515625,53.7109375
120.421875,33.203125,-8.30078125,-51.26953125,47.36328125
120.42578125,50.29296875,-9.765625,-60.546875,46.38671875
120.4296875,65.4296875,-4.8828125,-60.546875,42.96875
120.43359375,46.38671875,-2.44140625,-59.08203125,36.1328125
120.4375,27.83203125,-1.953125,-55.17578125,65.91796875
120.44140625,50.78125,0.0,-48.828125,61.5234375
120.4453125,30.76171875,-2.9296875,-50.78125,46.38671875
120.44921875,21.484375,-1.953125,-69.82421875,31.25
120.453125,55.17578125,-0.48828125,-71.77734375,47.8515625
120.45703125,53.22265625,-34.1796875,-68.359375,42.48046875
120.4609375,22.94921875,-48.33984375,-78.61328125,18.06640625
120.46484375,17.08984375,-18.5546875,-72.75390625,50.29296875
120.46875,43.45703125,-13.671875,-60.05859375,45.41015625
120.47265625,47.8515625,-3.41796875,-79.58984375,20.01953125
120.4765625,23.4375,-4.39453125,-88.37890625,19.04296875
120.48046875,52.734375,-9.765625,-66.89453125,26.3671875
120.484375,63.4765625,-4.8828125,-65.91796875,36.1328125
120.48828125,50.29296875,1.46484375,-80.56640625,22.4609375
120.4921875,48.828125,3.41796875,-83.49609375,31.25
120.49609375,61.5234375,-49.31640625,-76.66015625,63.96484375
120.5,75.68359375,-60.05859375,-77.1484375,33.69140625
120.50390625,53.7109375,-3.90625,-86.42578125,16.6015625
120.5078125,34.1796875,-7.32421875,-78.61328125,34.1796875
120.51171875,49.8046875,-5.859375,-89.35546875,38.0859375
120.515625,67.3828125,-2.9296875,-90.33203125,62.01171875
120.51953125,37.109375,7.32421875,-87.890625,49.8046875
120.5234375,50.78125,7.8125,-88.8671875,29.296875
120.52734375,78.61328125,0.0,-86.9140625,30.76171875
120.53125,48.828125,6.34765625,-93.26171875,14.6484375
120.53515625,38.0859375,-1.953125,-73.73046875,16.11328125
120.5390625,65.91796875,-15.625,-65.91796875,46.38671875
120.54296875,95.21484375,-4.39453125,-85.9375,48.828125
120.546875,67.87109375,2.9296875,-87.890625,41.015625
120.55078125,38.57421875,2.44140625,-83.0078125,52.734375
120.5546875,69.3359375,1.46484375,-85.44921875,55.6640625
120.55859375,46.38671875,-7.8125,-90.8203125,42.96875
120.5625,16.11328125,-6.8359375,-88.8671875,27.34375
120.56640625,68.359375,0.9765625,-76.171875,16.6015625
120.5703125,46.875,8.30078125,-91.796875,31.73828125
120.57421875,45.8984375,6.8359375,-102.5390625,33.69140625
120.578125,66.40625,-4.8828125,-89.35546875,33.203125
120.58203125,44.921875,-3.41796875,-85.44921875,28.80859375
120.5859375,77.1484375,-1.46484375,-82.51953125,36.62109375
120.58984375,86.42578125,0.9765625,-93.75,40.52734375
120.59375,71.77734375,-5.37109375,-97.65625,33.203125
120.59765625,66.89453125,-9.765625,-80.078125,30.76171875
120.6015625,16.6015625,-3.90625,-79.1015625,18.5546875
120.60546875,29.296875,-12.6953125,-79.58984375,23.4375
120.609375,96.19140625,-13.671875,-82.03125,47.8515625
120.61328125,72.75390625,-4.39453125,-95.703125,39.55078125
120.6171875,53.7109375,7.32421875,-86.42578125,7.32421875
120.62109375,66.89453125,5.37109375,-82.51953125,25.87890625
120.625,79.1015625,-0.48828125,-104.00390625,24.90234375
120.62890625,94.7265625,6.34765625,-98.6328125,3.90625
120.6328125,68.84765625,-0.48828125,-89.84375,-3.41796875
120.63671875,72.75390625,-9.765625,-100.09765625,-1.46484375
120.640625,104.4921875,-12.6953125,-106.93359375,41.50390625
120.64453125,87.40234375,-9.765625,-113.76953125,22.94921875
120.6484375,52.734375,-9.765625,-107.421875,-29.296875
120.65234375,53.7109375,-10.7421875,-111.328125,-2.9296875
120.65625,82.03125,-9.27734375,-118.1640625,44.921875
120.66015625,71.2890625,-4.8828125,-106.4453125,8.30078125
120.6640625,59.08203125,7.32421875,-106.93359375,-8.7890625
120.66796875,79.58984375,5.37109375,-92.28515625,47.8515625
120.671875,64.453125,-8.30078125,-75.1953125,29.78515625
120.67578125,60.05859375,1.46484375,-69.82421875,30.76171875
120.6796875,61.03515625,9.27734375,-62.01171875,53.22265625
120.68359375,76.171875,2.44140625,-68.84765625,39.55078125
120.6875,76.171875,0.9765625,-78.61328125,9.27734375
120.69140625,38.57421875,-1.953125,-83.0078125,-10.25390625
120.6953125,39.55078125,-2.9296875,-79.58984375,36.1328125
120.69921875,71.2890625,-11.23046875,-70.80078125,62.01171875
120.703125,60.05859375,-7.32421875,-70.80078125,15.13671875
120.70703125,39.55078125,-12.6953125,-59.5703125,22.94921875
120.7109375,47.8515625,-21.484375,-64.94140625,30.2734375
120.71484375,70.3125,-9.765625,-74.70703125,20.01953125
120.71875,34.1796875,-13.671875,-57.6171875,4.39453125
120.72265625,20.01953125,-14.6484375,-75.1953125,-7.8125
120.7265625,32.2265625,-14.6484375,-89.84375,7.8125
120.73046875,50.29296875,-20.99609375,-80.078125,5.859375
120.734375,77.1484375,-25.390625,-74.21875,12.20703125
120.73828125,67.3828125,-10.25390625,-68.359375,19.53125
120.7421875,52.734375,-7.8125,-77.63671875,-3.90625
120.74609375,42.48046875,-25.87890625,-87.890625,-19.04296875
120.75,44.921875,-32.2265625,-85.44921875,17.08984375
120.75390625,58.10546875,-22.94921875,-94.7265625,-1.953125
120.7578125,51.7578125,-21.97265625,-94.7265625,-12.20703125
120.76171875,20.99609375,-27.34375,-91.30859375,-8.30078125
120.765625,29.296875,-19.53125,-98.14453125,-30.76171875
120.76953125,53.7109375,-18.5546875,-88.37890625,-14.16015625
120.7734375,51.7578125,-20.01953125,-93.75,-25.390625
120.77734375,9.27734375,2.9296875,-95.21484375,9.27734375
120.78125,35.15625,-1.953125,-78.61328125,28.3203125
120.78515625,40.52734375,-29.78515625,-87.40234375,-11.23046875
120.7890625,34.66796875,-20.01953125,-99.12109375,2.44140625
120.79296875,53.7109375,-8.7890625,-81.54296875,23.4375
120.796875,9.765625,-10.7421875,-68.359375,1.46484375
120.80078125,1.953125,-10.7421875,-70.3125,-0.48828125
120.8046875,44.921875,-14.6484375,-67.3828125,25.390625
120.80859375,44.921875,-14.16015625,-73.2421875,21.97265625
120.8125,14.6484375,-19.04296875,-66.89453125,15.13671875
120.81640625,-17.08984375,-10.25390625,-64.94140625,-11.71875
120.8203125,0.0,-6.34765625,-72.265625,4.39453125
120.82421875,20.5078125,-17.578125,-71.2890625,28.80859375
120.828125,-0.9765625,-21.97265625,-78.125,-7.8125
120.83203125,-0.48828125,-24.4140625,-89.84375,2.9296875
120.8359375,16.11328125,10.25390625,-91.796875,3.41796875
120.83984375,21.484375,14.6484375,-89.35546875,-7.32421875
120.84375,-8.30078125,-22.94921875,-98.14453125,12.6953125
120.84765625,-19.04296875,-20.01953125,-107.91015625,1.46484375
120.8515625,-17.08984375,-25.390625,-95.21484375,-6.8359375
120.85546875,-37.109375,-18.5546875,-99.12109375,-23.92578125
120.859375,-24.4140625,-16.11328125,-101.07421875,-35.15625
120.86328125,-19.04296875,-20.99609375,-98.6328125,-13.18359375
120.8671875,-26.85546875,-16.6015625,-109.86328125,1.953125
120.87109375,-8.7890625,-28.3203125,-107.421875,8.30078125
120.875,19.53125,-19.53125,-97.16796875,5.37109375
120.87890625,26.85546875,-7.32421875,-93.26171875,-10.25390625
120.8828125,12.20703125,-19.53125,-104.98046875,7.32421875
120.88671875,-9.765625,-26.85546875,-111.81640625,5.859375
120.890625,-17.08984375,-30.2734375,-111.81640625,-12.20703125
120.89453125,-39.55078125,-27.83203125,-105.95703125,7.32421875
120.8984375,-18.5546875,-15.625,-104.00390625,-4.39453125
120.90234375,24.4140625,-17.08984375,-104.4921875,-14.6484375
120.90625,8.7890625,-27.34375,-99.12109375,22.4609375
120.91015625,-12.6953125,-27.83203125,-97.65625,19.53125
120.9140625,-7.32421875,-24.4140625,-106.93359375,-25.390625
120.91796875,19.04296875,-13.18359375,-114.74609375,-16.11328125
120.921875,-10.25390625,-15.625,-115.234375,49.8046875
120.92578125,-13.18359375,-25.390625,-102.05078125,43.9453125
120.9296875,-8.30078125,-19.53125,-115.234375,-14.6484375
120.93359375,-30.2734375,-10.7421875,-123.53515625,-34.1796875
120.9375,-28.80859375,-19.04296875,-100.09765625,-15.13671875
120.94140625,-15.13671875,-26.85546875,-104.00390625,12.20703125
120.9453125,-16.11328125,-19.53125,-113.28125,-28.3203125
120.94921875,-24.4140625,-16.11328125,-104.00390625,-26.3671875
120.953125,12.20703125,-15.625,-106.93359375,3.41796875
120.95703125,20.99609375,-12.6953125,-106.93359375,4.8828125
120.9609375,0.0,-15.625,-104.00390625,10.7421875
120.96484375,-8.7890625,-18.5546875,-106.93359375,-9.27734375
120.96875,-18.5546875,-11.71875,-111.81640625,-28.3203125
120.97265625,-23.92578125,-7.8125,-124.0234375,-21.484375
120.9765625,5.37109375,-14.6484375,-132.32421875,1.953125
120.98046875,23.4375,-10.7421875,-134.765625,-9.765625
120.984375,-2.9296875,-16.11328125,-130.37109375,-6.34765625
120.98828125,7.8125,-19.04296875,-113.76953125,20.5078125
120.9921875,16.11328125,0.48828125,-139.16015625,6.8359375
120.99609375,7.32421875,-2.9296875,-157.71484375,-27.34375
121.0,1.953125,-15.13671875,-130.859375,-14.16015625
121.00390625,11.71875,-5.859375,-131.8359375,-20.5078125
121.0078125,0.0,-2.9296875,-152.83203125,-29.296875
121.01171875,4.39453125,-9.765625,-159.1796875,-13.671875
121.015625,24.4140625,-11.71875,-150.87890625,5.859375
121.01953125,19.04296875,-3.90625,-139.6484375,12.20703125
121.0234375,-7.8125,-4.8828125,-135.7421875,11.71875
121.02734375,-18.06640625,-4.8828125,-138.18359375,23.4375
121.03125,11.23046875,-10.25390625,-139.16015625,4.39453125
121.03515625,4.39453125,-10.25390625,-134.765625,10.25390625
121.0390625,-14.16015625,-9.27734375,-117.67578125,17.08984375
121.04296875,-17.578125,-11.71875,-99.609375,1.46484375
121.046875,-4.8828125,-2.44140625,-106.4453125,-11.71875
121.05078125,-22.4609375,3.41796875,-122.55859375,-32.2265625
121.0546875,-43.45703125,-4.8828125,-113.76953125,-7.32421875
121.05859375,-16.6015625,-14.6484375,-102.5390625,16.6015625
121.0625,10.7421875,-12.20703125,-109.86328125,-3.90625
121.06640625,6.34765625,-3.90625,-107.421875,-6.8359375
121.0703125,-5.37109375,-6.8359375,-94.7265625,-20.99609375
121.07421875,-12.6953125,-18.06640625,-86.42578125,-15.13671875
121.078125,-17.578125,-10.7421875,-91.30859375,-12.20703125
121.08203125,-27.83203125,1.953125,-99.12109375,-40.52734375
121.0859375,-10.25390625,-6.34765625,-100.5859375,-40.52734375
121.08984375,13.671875,-3.90625,-98.6328125,-3.41796875
121.09375,-4.8828125,-2.9296875,-83.984375,6.34765625
121.09765625,-14.16015625,-8.7890625,-79.58984375,-9.27734375
121.1015625,-20.5078125,-4.39453125,-98.6328125,1.46484375
121.10546875,-1.46484375,-2.9296875,-106.93359375,-8.30078125
121.109375,11.23046875,-1.46484375,-118.65234375,-22.94921875
121.11328125,-18.5546875,0.9765625,-132.8125,-20.99609375
121.1171875,-3.90625,-6.8359375,-123.046875,-3.90625
121.12109375,-5.37109375,-6.34765625,-113.28125,-7.8125
121.125,-15.13671875,1.953125,-100.5859375,-0.48828125
121.12890625,-14.6484375,-1.953125,-93.75,16.11328125
121.1328125,-16.11328125,2.9296875,-100.5859375,3.41796875
121.13671875,-20.99609375,-5.37109375,-112.3046875,0.48828125
121.140625,-48.33984375,-19.04296875,-97.16796875,9.27734375
121.14453125,-16.6015625,-6.8359375,-85.44921875,-7.32421875
121.1484375,-23.92578125,-6.8359375,-99.609375,-63.4765625
121.15234375,-54.19921875,-15.13671875,-98.14453125,-41.50390625
121.15625,-28.80859375,-28.3203125,-93.26171875,-25.390625
121.16015625,-25.390625,-29.78515625,-90.8203125,-52.24609375
121.1640625,-54.19921875,-9.27734375,-76.171875,-33.203125
121.16796875,-86.42578125,-9.27734375,-70.3125,-53.7109375
121.171875,-106.4453125,-14.16015625,-83.0078125,-120.1171875
121.17578125,-93.26171875,-13.671875,-83.0078125,-125.48828125
121.1796875,-98.14453125,-14.6484375,-76.171875,-124.0234375
121.18359375,-145.99609375,-16.11328125,-82.51953125,-140.13671875
121.1875,-139.16015625,-19.04296875,-75.68359375,-141.11328125
121.19140625,-139.6484375,-13.671875,-59.5703125,-139.16015625
121.1953125,-157.2265625,-11.71875,-71.2890625,-140.625
121.19921875,-185.05859375,-31.73828125,-71.77734375,-165.52734375
121.203125,-208.49609375,-29.296875,-61.5234375,-200.1953125
121.20703125,-180.17578125,-14.16015625,-77.63671875,-181.640625
121.2109375,-145.5078125,-9.765625,-81.54296875,-149.4140625
121.21484375,-158.69140625,-12.20703125,-66.40625,-167.96875
121.21875,-154.78515625,-21.97265625,-62.01171875,-159.66796875
121.22265625,-161.1328125,-18.5546875,-70.3125,-153.3203125
121.2265625,-152.34375,-9.27734375,-73.73046875,-155.2734375
121.23046875,-118.65234375,-8.30078125,-69.82421875,-134.765625
121.234375,-90.8203125,-5.859375,-64.94140625,-106.4453125
121.23828125,-85.44921875,-9.27734375,-62.98828125,-99.609375
121.2421875,-116.2109375,-12.6953125,-81.54296875,-117.1875
121.24609375,-85.44921875,-16.11328125,-88.37890625,-67.87109375
121.25,-47.8515625,-28.3203125,-83.984375,-38.0859375
121.25390625,-36.1328125,-17.578125,-98.14453125,-66.40625
121.2578125,-14.16015625,-18.06640625,-103.02734375,-40.52734375
121.26171875,20.01953125,-23.92578125,-100.5859375,3.41796875
121.265625,-5.37109375,-13.671875,-110.3515625,0.9765625
121.26953125,-13.18359375,-13.18359375,-115.72265625,2.44140625
121.2734375,22.4609375,-7.32421875,-117.1875,0.9765625
121.27734375,26.85546875,-30.76171875,-121.09375,7.8125
121.28125,31.25,-38.0859375,-105.95703125,22.94921875
121.28515625,50.78125,-12.6953125,-100.5859375,41.50390625
121.2890625,45.8984375,-18.06640625,-110.83984375,47.36328125
121.29296875,48.33984375,-20.99609375,-110.83984375,60.546875
121.296875,71.77734375,-40.0390625,-109.375,39.0625
121.30078125,31.25,-38.57421875,-114.2578125,26.3671875
121.3046875,20.99609375,-13.671875,-117.1875,40.52734375
121.30859375,64.94140625,-19.04296875,-109.86328125,44.921875
121.3125,46.875,-15.13671875,-118.65234375,41.50390625
121.31640625,21.484375,-7.8125,-130.37109375,25.390625
121.3203125,24.4140625,-12.20703125,-121.58203125,20.01953125
121.32421875,35.64453125,-11.71875,-106.93359375,31.25
121.328125,45.8984375,-8.7890625,-105.95703125,37.109375
121.33203125,62.01171875,-7.8125,-106.4453125,47.8515625
121.3359375,66.89453125,-18.5546875,-100.5859375,37.109375
121.33984375,58.10546875,-26.3671875,-101.5625,37.59765625
121.34375,63.96484375,-18.5546875,-109.86328125,29.296875
121.34765625,76.171875,-4.39453125,-118.1640625,13.671875
121.3515625,30.76171875,8.7890625,-119.140625,34.66796875
121.35546875,38.57421875,-8.7890625,-115.234375,30.76171875
121.359375,78.125,-12.6953125,-124.51171875,18.06640625
121.36328125,54.6875,-8.30078125,-117.67578125,-6.34765625
121.3671875,31.73828125,-14.6484375,-102.05078125,4.39453125
121.37109375,37.109375,-4.8828125,-104.4921875,40.0390625
121.375,27.34375,-2.44140625,-104.00390625,44.43359375
121.37890625,47.36328125,-8.30078125,-99.12109375,39.0625
121.3828125,47.8515625,-5.859375,-106.4453125,49.8046875
121.38671875,34.66796875,-7.32421875,-109.86328125,50.78125
121.390625,51.7578125,-6.34765625,-106.93359375,34.66796875
121.39453125,54.6875,-13.671875,-108.3984375,66.89453125
121.3984375,75.68359375,-25.87890625,-109.375,72.75390625
121.40234375,71.2890625,-13.18359375,-116.2109375,42.96875
121.40625,37.59765625,-4.8828125,-127.44140625,20.99609375
121.41015625,23.4375,-7.32421875,-130.37109375,25.87890625
121.4140625,14.16015625,-7.8125,-132.32421875,25.87890625
121.41796875,15.625,-28.80859375,-133.30078125,15.625
121.421875,39.0625,-17.578125,-135.7421875,21.484375
121.42578125,22.94921875,-9.27734375,-132.8125,29.78515625
121.4296875,6.34765625,-19.04296875,-129.8828125,7.32421875
121.43359375,17.08984375,-6.34765625,-136.23046875,2.44140625
121.4375,45.41015625,-33.69140625,-136.71875,14.6484375
121.44140625,49.31640625,-27.83203125,-141.11328125,9.27734375
121.4453125,62.01171875,8.7890625,-131.8359375,-0.9765625
121.44921875,35.64453125,-0.9765625,-126.953125,-15.13671875
121.453125,-20.5078125,-5.859375,-129.39453125,-3.41796875
121.45703125,-10.7421875,-7.8125,-112.79296875,-5.859375
121.4609375,11.23046875,-2.9296875,-106.4453125,-12.6953125
121.46484375,30.76171875,2.44140625,-112.79296875,-15.13671875
121.46875,1.953125,-5.859375,-113.76953125,-36.1328125
121.47265625,-24.4140625,4.8828125,-117.1875,-47.8515625
121.4765625,-8.30078125,-8.7890625,-118.1640625,-29.296875
121.48046875,-15.13671875,-3.90625,-117.67578125,-37.109375
121.484375,-25.390625,32.2265625,-115.72265625,-35.15625
121.48828125,18.5546875,27.83203125,-108.88671875,-5.859375
121.4921875,58.10546875,14.16015625,-111.81640625,-10.7421875
121.49609375,37.109375,20.99609375,-115.72265625,-25.390625
121.5,22.4609375,24.90234375,-112.79296875,-9.765625
121.50390625,34.1796875,-6.34765625,-99.12109375,-5.37109375
121.5078125,47.36328125,-5.37109375,-108.88671875,-24.4140625
121.51171875,40.52734375,19.04296875,-121.09375,-17.08984375
121.515625,56.15234375,20.01953125,-111.81640625,6.8359375
121.51953125,46.875,14.16015625,-133.30078125,-8.7890625
121.5234375,47.36328125,-30.76171875,-126.46484375,-16.11328125
121.52734375,43.9453125,-44.43359375,-118.65234375,-0.48828125
121.53125,7.8125,-9.765625,-134.27734375,-22.4609375
121.53515625,17.08984375,-18.5546875,-112.79296875,-7.32421875
121.5390625,24.4140625,-14.6484375,-112.3046875,-5.37109375
121.54296875,-8.30078125,4.8828125,-142.578125,-41.50390625
121.546875,-59.08203125,9.27734375,-155.76171875,-61.03515625
121.55078125,-41.9921875,3.90625,-147.94921875,-55.6640625
121.5546875,0.0,-2.44140625,-135.25390625,-31.25
121.55859375,8.7890625,-5.859375,-149.4140625,-22.94921875
121.5625,0.0,-13.18359375,-155.2734375,-45.41015625
121.56640625,-56.15234375,-23.92578125,-132.32421875,-28.3203125
121.5703125,-71.77734375,-34.66796875,-113.76953125,-1.46484375
121.57421875,-39.0625,-25.87890625,-111.328125,-25.390625
121.578125,-42.96875,-12.20703125,-109.375,-24.90234375
121.58203125,-49.8046875,-27.34375,-110.3515625,-9.27734375
121.5859375,-43.45703125,-43.9453125,-107.421875,24.4140625
121.58984375,-32.2265625,-56.15234375,-110.83984375,36.1328125
121.59375,-31.25,-69.3359375,-117.1875,8.30078125
121.59765625,-25.390625,-84.47265625,-106.4453125,13.671875
121.6015625,-14.6484375,-88.8671875,-109.86328125,16.6015625
121.60546875,-6.8359375,-105.95703125,-106.4453125,8.30078125
121.609375,-9.27734375,-145.01953125,-97.16796875,13.671875
121.61328125,0.48828125,-146.484375,-96.6796875,0.9765625
121.6171875,19.04296875,-143.5546875,-97.16796875,-3.41796875
121.62109375,-4.39453125,-132.32421875,-101.07421875,-17.08984375
121.625,-8.7890625,-115.72265625,-99.609375,-24.4140625
121.62890625,5.37109375,-92.28515625,-103.515625,-4.39453125
121.6328125,11.71875,-82.51953125,-94.7265625,-0.9765625
121.63671875,20.01953125,-84.9609375,-92.28515625,18.5546875
121.640625,33.69140625,-81.0546875,-90.8203125,31.25
121.64453125,-6.34765625,-81.54296875,-78.125,15.13671875
121.6484375,-45.41015625,-82.03125,-80.56640625,23.92578125
121.65234375,-55.6640625,-77.1484375,-85.9375,14.16015625
121.65625,-47.36328125,-77.63671875,-85.9375,3.90625
121.66015625,-44.921875,-88.37890625,-92.7734375,13.671875
121.6640625,-55.17578125,-100.5859375,-102.05078125,24.90234375
121.66796875,-43.45703125,-103.515625,-107.421875,30.2734375
121.671875,-36.1328125,-93.26171875,-109.86328125,13.18359375
121.67578125,-33.203125,-82.03125,-104.98046875,1.953125
121.6796875,-46.38671875,-77.1484375,-108.3984375,-30.76171875
121.68359375,-32.71484375,-78.61328125,-108.88671875,-20.01953125
121.6875,-10.7421875,-63.4765625,-103.02734375,17.08984375
121.69140625,-28.3203125,-51.7578125,-87.40234375,25.390625
121.6953125,-20.01953125,-49.8046875,-70.3125,27.83203125
121.69921875,15.625,-49.31640625,-70.80078125,11.23046875
121.703125,0.0,-45.8984375,-76.66015625,1.953125
121.70703125,-16.11328125,-41.50390625,-81.54296875,12.20703125
121.7109375,-48.828125,-49.31640625,-86.42578125,13.18359375
121.71484375,-49.31640625,-48.828125,-92.28515625,13.671875
121.71875,-12.6953125,-42.96875,-86.42578125,14.6484375
121.72265625,-19.53125,-53.22265625,-91.30859375,-14.16015625
121.7265625,-35.64453125,-56.640625,-97.65625,-5.37109375
121.73046875,-26.3671875,-53.7109375,-92.28515625,20.5078125
121.734375,-27.83203125,-55.6640625,-90.8203125,0.0
121.73828125,-46.875,-66.40625,-94.23828125,-14.6484375
121.7421875,-64.453125,-80.078125,-113.28125,-34.1796875
121.74609375,-93.26171875,-83.0078125,-127.44140625,-64.94140625
121.75,-103.515625,-83.49609375,-127.9296875,-66.40625
121.75390625,-93.75,-81.0546875,-127.44140625,-70.3125
121.7578125,-87.890625,-88.37890625,-121.09375,-56.640625
121.76171875,-79.1015625,-85.9375,-101.5625,-21.484375
121.765625,-74.70703125,-65.91796875,-90.8203125,-17.578125
121.76953125,-59.08203125,-51.7578125,-83.0078125,-13.18359375
121.7734375,-27.83203125,-50.78125,-69.82421875,-26.3671875
121.77734375,-28.3203125,-68.84765625,-77.63671875,-32.71484375
121.78125,-44.921875,-69.82421875,-83.984375,-15.13671875
121.78515625,-41.9921875,-54.6875,-73.2421875,-1.46484375
121.7890625,-36.62109375,-43.45703125,-72.265625,-15.625
121.79296875,-39.0625,-37.59765625,-79.1015625,-26.3671875
121.796875,-63.4765625,-38.57421875,-81.54296875,-26.3671875
121.80078125,-56.640625,-33.203125,-83.984375,-40.52734375
121.8046875,-63.96484375,-57.12890625,-116.2109375,-71.2890625
121.80859375,-128.90625,-106.93359375,-158.69140625,-131.8359375
121.8125,-158.69140625,-123.53515625,-183.10546875,-158.69140625
121.81640625,-153.3203125,-139.6484375,-189.94140625,-134.27734375
121.8203125,-149.4140625,-143.5546875,-177.24609375,-131.34765625
121.82421875,-151.85546875,-122.0703125,-168.45703125,-145.99609375
121.828125,-174.8046875,-119.140625,-162.109375,-155.76171875
121.83203125,-162.109375,-119.62890625,-154.78515625,-145.99609375
121.8359375,-145.01953125,-109.375,-146.484375,-141.11328125
121.83984375,-124.0234375,-96.19140625,-150.390625,-128.41796875
121.84375,-118.1640625,-97.16796875,-152.83203125,-117.67578125
121.84765625,-139.16015625,-93.75,-140.625,-125.9765625
121.8515625,-138.671875,-96.6796875,-135.7421875,-106.93359375
121.85546875,-136.71875,-93.75,-125.0,-87.890625
121.859375,-133.7890625,-86.42578125,-109.86328125,-86.9140625
121.86328125,-136.23046875,-86.42578125,-124.51171875,-94.7265625
121.8671875,-126.46484375,-80.078125,-137.6953125,-97.65625
121.87109375,-118.65234375,-80.56640625,-137.6953125,-100.09765625
121.875,-127.9296875,-84.47265625,-123.046875,-86.42578125
121.87890625,-120.1171875,-77.63671875,-103.515625,-61.5234375
121.8828125,-93.75,-77.1484375,-101.5625,-59.08203125
121.88671875,-85.9375,-84.47265625,-97.16796875,-91.30859375
121.890625,-117.67578125,-79.1015625,-91.30859375,-124.0234375
121.89453125,-98.14453125,-78.125,-83.49609375,-117.67578125
121.8984375,-78.61328125,-82.03125,-83.0078125,-105.46875
121.90234375,-83.0078125,-73.2421875,-89.35546875,-92.28515625
121.90625,-72.265625,-62.01171875,-83.49609375,-99.609375
121.91015625,-77.1484375,-53.22265625,-83.49609375,-93.26171875
121.9140625,-81.54296875,-57.6171875,-96.19140625,-63.96484375
121.91796875,-88.37890625,-62.5,-98.14453125,-76.171875
121.921875,-108.88671875,-52.734375,-99.12109375,-92.7734375
121.92578125,-103.515625,-39.0625,-105.95703125,-91.796875
121.9296875,-106.4453125,-36.62109375,-106.4453125,-106.93359375
121.93359375,-125.48828125,-43.45703125,-107.421875,-103.515625
121.9375,-96.19140625,-44.921875,-102.5390625,-92.28515625
121.94140625,-80.078125,-38.57421875,-86.9140625,-69.82421875
121.9453125,-97.65625,-39.55078125,-89.84375,-67.3828125
121.94921875,-83.984375,-40.52734375,-95.703125,-73.73046875
121.953125,-75.68359375,-34.66796875,-95.21484375,-63.4765625
121.95703125,-71.77734375,-29.78515625,-84.9609375,-54.6875
121.9609375,-79.58984375,-34.1796875,-77.63671875,-46.875
121.96484375,-71.77734375,-35.15625,-84.9609375,-58.10546875
121.96875,-67.3828125,-26.3671875,-92.28515625,-80.078125
121.97265625,-63.4765625,-24.4140625,-87.890625,-87.40234375
121.9765625,-71.2890625,-24.4140625,-82.03125,-58.59375
121.98046875,-80.078125,-20.5078125,-88.37890625,-43.45703125
121.984375,-39.55078125,-15.625,-82.03125,-31.25
121.98828125,-46.38671875,-14.16015625,-80.56640625,-36.62109375
121.9921875,-55.17578125,-15.13671875,-92.28515625,-56.640625
121.99609375,-33.203125,-38.0859375,-94.7265625,-43.9453125
122.0,-42.96875,-44.43359375,-93.75,-30.76171875
122.00390625,-38.57421875,-17.08984375,-95.703125,-47.8515625
122.0078125,-26.3671875,-11.71875,-89.84375,-52.734375
122.01171875,-21.97265625,-13.18359375,-83.984375,-38.57421875
122.015625,-24.4140625,-11.23046875,-83.984375,-15.13671875
122.01953125,-30.2734375,-2.9296875,-82.51953125,-24.90234375
122.0234375,-57.12890625,0.48828125,-97.65625,-43.9453125
122.02734375,-53.22265625,-6.8359375,-95.703125,-40.52734375
122.03125,-24.4140625,-12.20703125,-88.8671875,-33.69140625
122.03515625,-30.2734375,5.37109375,-91.796875,-42.48046875
122.0390625,-45.8984375,15.13671875,-97.16796875,-61.5234375
122.04296875,-51.26953125,-2.44140625,-93.26171875,-50.78125
122.046875,-51.26953125,-12.6953125,-75.1953125,-37.59765625
122.05078125,-71.2890625,-9.765625,-82.03125,-50.78125
122.0546875,-83.984375,-4.8828125,-92.7734375,-55.6640625
122.05859375,-96.6796875,-4.8828125,-90.33203125,-42.48046875
122.0625,-101.07421875,-7.8125,-78.125,-41.015625
122.06640625,-66.40625,-9.27734375,-83.49609375,-48.33984375
122.0703125,-70.80078125,-13.18359375,-98.14453125,-66.40625
122.07421875,-93.26171875,-15.625,-92.28515625,-85.9375
122.078125,-85.44921875,-9.27734375,-83.0078125,-77.1484375
122.08203125,-100.5859375,-3.41796875,-77.63671875,-96.6796875
122.0859375,-127.9296875,-9.27734375,-81.0546875,-115.72265625
122.08984375,-125.9765625,-14.16015625,-80.078125,-105.95703125
122.09375,-149.4140625,-9.765625,-74.70703125,-126.46484375
122.09765625,-176.26953125,-43.9453125,-66.40625,-154.296875
122.1015625,-164.55078125,-54.6875,-58.59375,-157.2265625
122.10546875,-170.8984375,-20.5078125,-59.5703125,-166.50390625
122.109375,-196.2890625,-14.6484375,-60.05859375,-179.19921875
122.11328125,-209.9609375,-13.18359375,-50.29296875,-186.5234375
122.1171875,-218.26171875,-14.16015625,-39.55078125,-190.4296875
122.12109375,-233.3984375,-15.13671875,-45.41015625,-190.4296875
122.125,-242.1875,-18.5546875,-44.43359375,-196.77734375
122.12890625,-218.26171875,-18.5546875,-35.15625,-187.01171875
122.1328125,-190.91796875,-18.06640625,-48.828125,-172.36328125
122.13671875,-170.8984375,-20.01953125,-58.10546875,-174.31640625
122.140625,-162.59765625,-13.18359375,-62.01171875,-145.99609375
122.14453125,-163.0859375,-11.71875,-68.359375,-130.859375
122.1484375,-156.25,-14.6484375,-63.96484375,-135.7421875
122.15234375,-145.01953125,-11.23046875,-63.4765625,-108.3984375
122.15625,-121.09375,-8.30078125,-62.5,-89.84375
122.16015625,-112.79296875,-15.13671875,-67.3828125,-96.19140625
122.1640625,-109.86328125,-15.625,-75.68359375,-72.265625
122.16796875,-77.63671875,-7.32421875,-81.0546875,-56.640625
122.171875,-59.08203125,-5.37109375,-80.56640625,-73.73046875
122.17578125,-62.5,-7.8125,-82.03125,-45.8984375
122.1796875,-38.0859375,-12.20703125,-79.58984375,-8.7890625
122.18359375,-20.99609375,-3.90625,-79.1015625,1.953125
122.1875,-28.80859375,2.44140625,-79.58984375,-2.9296875
122.19140625,-14.6484375,0.9765625,-64.94140625,-4.8828125
122.1953125,-20.99609375,-4.39453125,-67.87109375,-20.99609375
122.19921875,-16.11328125,-1.953125,-79.58984375,-17.08984375
122.203125,3.41796875,4.8828125,-73.2421875,-8.7890625
122.20703125,0.0,-1.46484375,-70.80078125,-3.41796875
122.2109375,4.39453125,-1.953125,-78.125,15.13671875
122.21484375,-5.859375,2.9296875,-69.3359375,12.20703125
122.21875,0.0,9.27734375,-62.01171875,-3.90625
122.22265625,-8.7890625,10.7421875,-67.87109375,-14.16015625
122.2265625,-31.73828125,2.9296875,-76.171875,0.9765625
122.23046875,-4.39453125,-2.44140625,-80.56640625,18.06640625
122.234375,12.6953125,3.90625,-83.0078125,11.23046875
122.23828125,-7.32421875,9.27734375,-83.984375,12.6953125
122.2421875,-7.32421875,0.0,-88.37890625,18.5546875
122.24609375,-2.44140625,-6.8359375,-92.7734375,7.32421875
122.25,-9.27734375,-6.8359375,-99.609375,6.34765625
122.25390625,-3.41796875,-1.46484375,-107.421875,1.46484375
122.2578125,-19.53125,2.44140625,-100.09765625,-9.27734375
122.26171875,-15.13671875,-1.953125,-83.0078125,-20.99609375
122.265625,-8.30078125,-0.9765625,-82.03125,-18.06640625
122.26953125,-23.4375,1.953125,-80.078125,-5.37109375
122.2734375,-27.83203125,12.20703125,-77.1484375,10.7421875
122.27734375,-16.6015625,-4.8828125,-85.9375,17.08984375
122.28125,-11.71875,-13.671875,-91.30859375,8.30078125
122.28515625,-19.53125,3.90625,-83.984375,1.46484375
122.2890625,-14.6484375,0.0,-79.58984375,-6.8359375
122.29296875,-24.4140625,-2.44140625,-83.984375,-7.8125
122.296875,-19.04296875,-0.48828125,-83.984375,-13.671875
122.30078125,1.953125,3.90625,-84.9609375,-11.71875
122.3046875,-3.90625,8.7890625,-84.9609375,-6.34765625
122.30859375,-20.5078125,7.32421875,-87.890625,-11.23046875
122.3125,-40.52734375,6.34765625,-89.35546875,-18.06640625
122.31640625,-31.25,3.41796875,-80.078125,-17.578125
122.3203125,-8.7890625,-0.48828125,-79.58984375,-4.8828125
122.32421875,-7.32421875,4.39453125,-84.9609375,-3.90625
122.328125,-17.08984375,4.8828125,-80.078125,0.48828125
122.33203125,-29.78515625,-6.8359375,-80.078125,-3.41796875
122.3359375,-27.34375,-18.06640625,-81.54296875,-18.5546875
122.33984375,-28.80859375,-11.71875,-72.75390625,-24.90234375
122.34375,-23.92578125,3.41796875,-63.4765625,-26.3671875
122.34765625,-26.85546875,-2.9296875,-60.05859375,-31.73828125
122.3515625,-33.203125,-8.30078125,-45.41015625,-21.97265625
122.35546875,-44.921875,-3.41796875,-36.62109375,-8.30078125
122.359375,-58.10546875,-9.765625,-28.80859375,-10.7421875
122.36328125,-41.015625,-13.671875,-14.6484375,-25.390625
122.3671875,-34.66796875,-12.6953125,-11.71875,-5.37109375
122.37109375,-35.15625,-7.8125,-6.34765625,4.39453125
122.375,-53.22265625,-12.20703125,-3.90625,-28.3203125
122.37890625,-42.96875,-22.94921875,0.48828125,-22.4609375
122.3828125,-21.484375,-12.6953125,3.41796875,-2.9296875
122.38671875,-24.4140625,-4.39453125,-0.48828125,-18.5546875
122.390625,-34.66796875,-3.90625,5.37109375,-23.92578125
122.39453125,-53.7109375,-2.9296875,5.859375,-14.16015625
122.3984375,-68.359375,-5.859375,-1.46484375,-17.08984375
122.40234375,-55.17578125,-5.37109375,-0.9765625,-5.859375
122.40625,-42.48046875,-0.9765625,-5.859375,-11.23046875
122.41015625,-41.015625,-1.46484375,-9.765625,-22.4609375
122.4140625,-25.87890625,-1.953125,-9.27734375,-20.99609375
122.41796875,-24.4140625,-6.8359375,-7.32421875,-17.08984375
122.421875,-36.62109375,-4.8828125,-9.27734375,-9.765625
122.42578125,-38.0859375,0.9765625,-7.32421875,-30.76171875
122.4296875,-43.9453125,-3.41796875,-3.90625,-30.2734375
122.43359375,-49.8046875,-3.90625,-7.32421875,-21.97265625
122.4375,-46.38671875,-2.9296875,-6.8359375,-20.99609375
122.44140625,-25.87890625,-3.41796875,-2.9296875,-15.625
122.4453125,-13.671875,-5.859375,-5.37109375,-26.85546875
122.44921875,-14.6484375,-4.39453125,-16.11328125,-25.390625
122.453125,-15.625,-2.44140625,-19.53125,-32.2265625
122.45703125,-26.3671875,-1.953125,-14.16015625,-59.08203125
122.4609375,-10.25390625,-0.9765625,-14.6484375,-51.7578125
122.46484375,-4.8828125,-2.44140625,-18.06640625,-23.92578125
122.46875,-10.25390625,0.48828125,-16.11328125,-11.23046875
122.47265625,-26.85546875,2.9296875,-13.671875,-10.25390625
122.4765625,-38.57421875,-3.41796875,-7.8125,-13.671875
122.48046875,-37.109375,-5.859375,-2.44140625,-9.765625
122.484375,-45.8984375,-1.953125,3.90625,-13.18359375
122.48828125,-47.8515625,-4.8828125,4.8828125,-2.44140625
122.4921875,-45.41015625,-11.71875,-8.7890625,2.44140625
122.49609375,-34.66796875,-9.27734375,-17.578125,-20.01953125
122.5,-38.0859375,0.48828125,-21.484375,-39.55078125
122.50390625,-50.78125,-3.90625,-18.5546875,-29.78515625
122.5078125,-55.17578125,-11.71875,-16.6015625,-30.2734375
122.51171875,-69.82421875,-12.6953125,-26.85546875,-57.6171875
122.515625,-54.19921875,-15.625,-28.3203125,-33.203125
122.51953125,-26.3671875,-16.6015625,-24.90234375,-11.23046875
122.5234375,-34.1796875,-10.7421875,-21.484375,-20.99609375
122.52734375,-39.55078125,-10.7421875,-16.11328125,-19.04296875
122.53125,-44.921875,-13.18359375,-17.578125,-28.80859375
122.53515625,-46.38671875,-8.7890625,-26.3671875,-39.55078125
122.5390625,-62.98828125,-4.39453125,-28.3203125,-44.43359375
122.54296875,-60.546875,-1.953125,-25.87890625,-52.24609375
122.546875,-43.45703125,0.0,-34.66796875,-60.05859375
122.55078125,-48.33984375,-2.9296875,-32.71484375,-49.31640625
122.5546875,-49.8046875,-5.859375,-31.73828125,-33.69140625
122.55859375,-41.9921875,-6.8359375,-29.78515625,-17.578125
122.5625,-56.640625,-5.37109375,-28.3203125,-21.484375
122.56640625,-71.77734375,-4.8828125,-30.76171875,-27.34375
122.5703125,-39.0625,0.9765625,-32.2265625,-17.578125
122.57421875,-23.92578125,1.953125,-35.15625,-32.2265625
122.578125,-32.71484375,-5.859375,-24.90234375,-41.015625
122.58203125,-30.76171875,-6.34765625,-28.80859375,-24.4140625
122.5859375,-32.71484375,-4.8828125,-28.80859375,-12.20703125
122.58984375,-38.0859375,-3.41796875,-27.83203125,-25.87890625
122.59375,-47.36328125,-8.7890625,-33.203125,-39.55078125
122.59765625,-60.546875,-20.01953125,-35.64453125,-46.38671875
122.6015625,-66.40625,-15.13671875,-37.59765625,-52.734375
122.60546875,-55.6640625,-12.6953125,-36.1328125,-42.48046875
122.609375,-58.10546875,-11.71875,-39.55078125,-33.203125
122.61328125,-61.5234375,-12.6953125,-31.25,-36.62109375
122.6171875,-40.52734375,-41.015625,-23.92578125,-30.76171875
122.62109375,-41.9921875,-40.0390625,-23.4375,-23.92578125
122.625,-42.48046875,-11.23046875,-19.53125,-28.80859375
122.62890625,-25.87890625,-8.30078125,-23.4375,-26.85546875
122.6328125,-25.390625,-8.7890625,-29.78515625,-33.69140625
122.63671875,-35.64453125,-17.578125,-27.83203125,-48.828125
122.640625,-34.66796875,-11.23046875,-20.99609375,-42.48046875
122.64453125,-32.71484375,5.859375,-13.18359375,-36.1328125
122.6484375,-45.41015625,6.34765625,-12.20703125,-36.62109375
122.65234375,-68.359375,7.32421875,-16.11328125,-16.6015625
122.65625,-30.76171875,-16.11328125,-11.71875,-20.99609375
122.66015625,-16.11328125,-30.76171875,-4.8828125,-31.73828125
122.6640625,-31.25,-0.48828125,-8.30078125,-36.1328125
122.66796875,-31.25,2.44140625,-9.765625,-46.38671875
122.671875,-34.66796875,3.90625,-7.8125,-41.015625
122.67578125,-40.52734375,8.7890625,-6.34765625,-28.3203125
122.6796875,-52.734375,6.8359375,-10.7421875,-37.59765625
122.68359375,-59.08203125,11.71875,-19.53125,-47.36328125
122.6875,-66.89453125,8.7890625,-15.625,-43.9453125
122.69140625,-55.6640625,8.30078125,-14.6484375,-45.41015625
122.6953125,-48.828125,0.48828125,-28.80859375,-43.9453125
122.69921875,-44.43359375,-14.16015625,-38.0859375,-44.43359375
122.703125,-27.83203125,-4.8828125,-29.78515625,-32.2265625
122.70703125,-30.76171875,-1.46484375,-25.87890625,-26.3671875
122.7109375,-31.25,0.9765625,-26.85546875,-41.015625
122.71484375,-17.08984375,4.39453125,-14.6484375,-37.109375
122.71875,-13.671875,-1.953125,1.953125,-30.2734375
122.72265625,-16.6015625,5.37109375,4.39453125,-33.203125
122.7265625,-17.08984375,6.8359375,-6.34765625,-44.43359375
122.73046875,-37.59765625,-1.953125,-18.5546875,-48.828125
122.734375,-38.0859375,-2.9296875,-12.20703125,-44.43359375
122.73828125,-26.85546875,3.90625,-5.37109375,-36.1328125
122.7421875,-45.41015625,4.8828125,-6.34765625,-36.62109375
122.74609375,-62.5,-7.32421875,-4.39453125,-44.43359375
122.75,-42.96875,-7.8125,3.41796875,-28.3203125
122.75390625,-33.203125,0.48828125,11.23046875,-26.3671875
122.7578125,-29.78515625,-22.4609375,6.8359375,-35.64453125
122.76171875,-38.0859375,-22.94921875,3.90625,-49.8046875
122.765625,-66.40625,0.0,-2.44140625,-73.73046875
122.76953125,-57.6171875,1.953125,-4.8828125,-52.24609375
122.7734375,-56.640625,0.0,-3.90625,-34.1796875
122.77734375,-58.59375,-2.9296875,2.44140625,-37.59765625
122.78125,-52.734375,-8.30078125,9.27734375,-35.64453125
122.78515625,-64.94140625,-10.25390625,-0.48828125,-28.3203125
122.7890625,-63.4765625,-16.11328125,-7.8125,-34.1796875
122.79296875,-58.59375,-11.71875,-9.27734375,-39.0625
122.796875,-53.22265625,-28.80859375,-18.06640625,-23.4375
122.80078125,-50.29296875,-35.15625,-26.3671875,-39.0625
122.8046875,-63.4765625,-7.32421875,-32.71484375,-60.546875
122.80859375,-54.6875,-4.8828125,-35.64453125,-45.8984375
122.8125,-40.0390625,0.48828125,-36.1328125,-38.0859375
122.81640625,-59.5703125,-4.39453125,-34.1796875,-46.38671875
122.8203125,-63.96484375,-8.30078125,-39.0625,-52.24609375
122.82421875,-43.9453125,-3.41796875,-40.0390625,-55.17578125
122.828125,-62.01171875,-10.7421875,-28.80859375,-35.64453125
122.83203125,-71.77734375,-3.90625,-28.3203125,-34.1796875
122.8359375,-47.36328125,-12.20703125,-22.94921875,-39.0625
122.83984375,-37.59765625,-38.57421875,-6.8359375,-33.69140625
122.84375,-47.36328125,-20.5078125,-10.25390625,-43.9453125
122.84765625,-53.22265625,-11.23046875,-19.04296875,-28.3203125
122.8515625,-48.828125,-13.671875,-27.83203125,-33.203125
122.85546875,-49.31640625,-11.23046875,-37.109375,-38.57421875
122.859375,-52.734375,-12.6953125,-31.25,-30.2734375
122.86328125,-92.7734375,-7.32421875,-26.85546875,-48.828125
122.8671875,-83.0078125,-9.27734375,-14.6484375,-54.6875
122.87109375,-42.96875,-18.5546875,-11.23046875,-42.96875
122.875,-49.31640625,-14.16015625,-17.08984375,-27.83203125
122.87890625,-40.0390625,-12.20703125,-11.23046875,-27.83203125
122.8828125,-40.0390625,-12.20703125,-21.97265625,-45.41015625
122.88671875,-42.96875,-10.7421875,-30.2734375,-50.78125
122.890625,-57.12890625,-6.8359375,-32.71484375,-58.10546875
122.89453125,-63.4765625,-14.16015625,-41.9921875,-53.7109375
122.8984375,-59.5703125,-39.0625,-36.1328125,-44.921875
122.90234375,-71.77734375,-24.90234375,-26.85546875,-49.8046875
122.90625,-68.359375,-4.39453125,-32.2265625,-50.29296875
122.91015625,-46.875,-10.7421875,-41.50390625,-46.875
122.9140625,-40.52734375,-18.5546875,-47.8515625,-48.828125
122.91796875,-62.01171875,-16.6015625,-46.875,-47.36328125
122.921875,-56.15234375,-10.7421875,-47.8515625,-48.33984375
122.92578125,-52.24609375,-7.32421875,-46.875,-46.875
122.9296875,-60.05859375,-12.20703125,-39.0625,-49.8046875
122.93359375,-36.62109375,-9.765625,-38.57421875,-41.50390625
122.9375,-48.33984375,-20.5078125,-38.57421875,-37.59765625
122.94140625,-68.84765625,-26.85546875,-37.109375,-46.875
122.9453125,-59.08203125,-14.6484375,-44.921875,-49.31640625
122.94921875,-43.45703125,-12.6953125,-53.22265625,-39.55078125
122.953125,-58.10546875,-11.23046875,-49.8046875,-40.0390625
122.95703125,-49.31640625,-15.13671875,-55.17578125,-44.43359375
122.9609375,-35.64453125,-11.23046875,-58.59375,-44.921875
122.96484375,-46.38671875,-8.30078125,-44.43359375,-42.48046875
122.96875,-40.0390625,-16.11328125,-44.43359375,-46.875
122.97265625,-32.71484375,-6.8359375,-47.8515625,-62.5
122.9765625,-51.26953125,-24.4140625,-42.96875,-56.640625
122.98046875,-68.359375,-46.38671875,-41.015625,-25.390625
122.984375,-42.96875,-23.92578125,-41.50390625,-29.78515625
122.98828125,-21.97265625,-14.6484375,-37.109375,-36.62109375
122.9921875,-28.3203125,-9.765625,-32.2265625,-35.15625
122.99609375,-52.24609375,-13.671875,-27.83203125,-43.45703125
123.0,-52.734375,-15.13671875,-26.3671875,-40.0390625
123.00390625,-59.5703125,-12.6953125,-24.90234375,-46.875
123.0078125,-66.40625,-21.484375,-19.53125,-57.6171875
123.01171875,-36.1328125,-17.08984375,-19.53125,-44.921875
123.015625,-33.69140625,-12.6953125,-18.06640625,-30.2734375
123.01953125,-41.50390625,-13.18359375,-19.04296875,-35.64453125
123.0234375,-48.828125,-9.27734375,-21.97265625,-43.9453125
123.02734375,-61.03515625,-7.32421875,-12.6953125,-45.41015625
123.03125,-36.1328125,-5.859375,-14.16015625,-46.38671875
123.03515625,-47.8515625,-9.765625,-25.87890625,-50.78125
123.0390625,-64.94140625,-7.8125,-28.80859375,-59.08203125
123.04296875,-40.0390625,-13.18359375,-26.85546875,-54.19921875
123.046875,-35.15625,-19.53125,-23.92578125,-43.9453125
123.05078125,-41.9921875,-14.6484375,-30.2734375,-64.453125
123.0546875,-71.77734375,-16.11328125,-43.45703125,-62.5
123.05859375,-69.3359375,-23.92578125,-39.0625,-40.52734375
123.0625,-79.1015625,-21.97265625,-36.62109375,-43.45703125
123.06640625,-85.9375,-14.6484375,-39.0625,-33.203125
123.0703125,-61.5234375,-14.6484375,-37.109375,-37.109375
123.07421875,-66.89453125,-14.6484375,-34.1796875,-57.12890625
123.078125,-52.24609375,-12.20703125,-28.3203125,-60.546875
123.08203125,-41.9921875,-13.18359375,-17.08984375,-37.109375
123.0859375,-48.828125,-20.01953125,-7.32421875,-23.4375
123.08984375,-46.38671875,-22.94921875,-7.8125,-25.87890625
123.09375,-31.25,-14.16015625,-13.671875,-42.48046875
123.09765625,-29.78515625,-16.11328125,-18.06640625,-44.921875
123.1015625,-32.2265625,-23.4375,-16.11328125,-30.2734375
123.10546875,-31.73828125,-20.99609375,-22.94921875,-31.25
123.109375,-55.17578125,-20.99609375,-41.50390625,-38.0859375
123.11328125,-64.94140625,-27.83203125,-57.12890625,-44.921875
123.1171875,-50.78125,-38.0859375,-74.21875,-63.96484375
123.12109375,-52.734375,-40.52734375,-89.35546875,-68.84765625
123.125,-63.4765625,-40.52734375,-87.890625,-69.3359375
123.12890625,-74.21875,-45.41015625,-82.03125,-77.63671875
123.1328125,-77.1484375,-51.26953125,-85.9375,-68.359375
123.13671875,-71.2890625,-48.33984375,-83.49609375,-57.6171875
123.140625,-67.3828125,-43.9453125,-77.1484375,-68.359375
123.14453125,-65.4296875,-43.9453125,-69.82421875,-70.3125
123.1484375,-72.75390625,-41.015625,-55.6640625,-71.77734375
123.15234375,-83.984375,-38.0859375,-41.9921875,-67.3828125
123.15625,-83.984375,-42.48046875,-41.9921875,-65.91796875
123.16015625,-83.984375,-38.0859375,-42.96875,-66.89453125
123.1640625,-69.3359375,-32.2265625,-37.109375,-74.70703125
123.16796875,-77.63671875,-37.59765625,-38.0859375,-88.37890625
123.171875,-83.0078125,-40.52734375,-43.45703125,-73.73046875
123.17578125,-61.5234375,-32.71484375,-38.0859375,-63.4765625
123.1796875,-63.4765625,-29.296875,-33.203125,-69.82421875
123.18359375,-70.80078125,-30.76171875,-43.45703125,-72.75390625
123.1875,-68.84765625,-32.71484375,-47.36328125,-71.77734375
123.19140625,-76.171875,-34.1796875,-51.7578125,-88.37890625
123.1953125,-94.23828125,-35.15625,-57.12890625,-84.9609375
123.19921875,-90.33203125,-33.203125,-50.29296875,-71.77734375
123.203125,-53.22265625,-30.2734375,-48.33984375,-67.87109375
123.20703125,-46.875,-28.80859375,-52.24609375,-67.87109375
123.2109375,-57.6171875,-24.90234375,-50.29296875,-79.58984375
123.21484375,-78.61328125,-28.80859375,-41.50390625,-77.1484375
123.21875,-65.4296875,-28.3203125,-33.203125,-67.87109375
123.22265625,-45.8984375,-29.296875,-39.0625,-81.0546875
123.2265625,-63.4765625,-32.2265625,-39.55078125,-76.66015625
123.23046875,-65.91796875,-34.1796875,-27.34375,-60.546875
123.234375,-73.73046875,-33.203125,-27.34375,-67.3828125
123.23828125,-76.171875,-28.3203125,-31.73828125,-83.0078125
123.2421875,-68.84765625,-25.87890625,-33.69140625,-83.0078125
123.24609375,-47.36328125,-21.484375,-30.76171875,-73.73046875
123.25,-34.1796875,-22.94921875,-32.2265625,-69.3359375
123.25390625,-30.2734375,-14.16015625,-40.52734375,-78.125
123.2578125,-10.7421875,-15.625,-27.83203125,-76.171875
123.26171875,-16.6015625,-22.94921875,-34.1796875,-84.9609375
123.265625,-41.9921875,-22.4609375,-38.0859375,-89.84375
123.26953125,-42.48046875,-26.85546875,-24.90234375,-77.1484375
123.2734375,-48.828125,-26.85546875,-30.2734375,-74.21875
123.27734375,-52.734375,-28.3203125,-33.69140625,-66.40625
123.28125,-62.98828125,-28.80859375,-30.2734375,-43.9453125
123.28515625,-88.8671875,-27.83203125,-39.0625,-47.36328125
123.2890625,-65.4296875,-28.3203125,-49.31640625,-65.91796875
123.29296875,-56.640625,-31.73828125,-50.78125,-62.5
123.296875,-68.359375,-25.87890625,-46.38671875,-64.94140625
123.30078125,-59.5703125,-27.83203125,-48.33984375,-93.75
123.3046875,-58.59375,-32.2265625,-52.24609375,-87.40234375
123.30859375,-52.734375,-31.25,-48.828125,-54.6875
123.3125,-51.7578125,-29.296875,-37.59765625,-40.52734375
123.31640625,-53.22265625,-28.3203125,-34.66796875,-41.9921875
123.3203125,-40.52734375,-31.73828125,-40.0390625,-57.6171875
123.32421875,-42.48046875,-27.83203125,-40.52734375,-67.87109375
123.328125,-49.31640625,-21.97265625,-27.34375,-60.05859375
123.33203125,-44.921875,-18.5546875,-26.85546875,-51.26953125
123.3359375,-57.6171875,-25.390625,-34.66796875,-64.453125
123.33984375,-77.63671875,-29.78515625,-33.203125,-76.171875
123.34375,-64.453125,-26.85546875,-28.80859375,-77.63671875
123.34765625,-44.921875,-22.4609375,-17.578125,-57.6171875
123.3515625,-49.8046875,-20.99609375,-16.11328125,-50.78125
123.35546875,-48.828125,-29.296875,-16.11328125,-44.43359375
123.359375,-24.90234375,-35.15625,-13.671875,-24.4140625
123.36328125,-27.34375,-29.78515625,-15.13671875,-22.94921875
123.3671875,-45.8984375,-22.4609375,-15.625,-37.109375
123.37109375,-44.43359375,-18.06640625,-13.18359375,-43.45703125
123.375,-42.96875,-17.578125,-7.8125,-32.2265625
123.37890625,-50.78125,-11.23046875,-6.8359375,-32.2265625
123.3828125,-58.59375,-14.16015625,-13.18359375,-46.875
123.38671875,-63.96484375,-23.4375,-17.08984375,-41.50390625
123.390625,-53.7109375,-22.94921875,-12.6953125,-28.80859375
123.39453125,-55.6640625,-24.4140625,-6.8359375,-17.578125
123.3984375,-48.828125,-18.5546875,-7.32421875,-27.34375
123.40234375,-31.25,-16.11328125,-13.18359375,-38.57421875
123.40625,-47.8515625,-23.92578125,-11.71875,-38.57421875
123.41015625,-63.4765625,-22.94921875,-10.25390625,-35.64453125
123.4140625,-56.15234375,-20.5078125,-11.23046875,-32.2265625
123.41796875,-53.22265625,-20.99609375,-16.6015625,-41.50390625
123.421875,-63.4765625,-20.99609375,-24.90234375,-55.17578125
123.42578125,-47.8515625,-24.4140625,-24.4140625,-51.7578125
123.4296875,-41.9921875,-25.87890625,-24.4140625,-30.76171875
123.43359375,-50.29296875,-24.4140625,-25.390625,-33.69140625
123.4375,-49.8046875,-28.3203125,-33.69140625,-43.9453125
123.44140625,-59.08203125,-26.3671875,-43.45703125,-34.1796875
123.4453125,-39.0625,-21.97265625,-43.45703125,-36.62109375
123.44921875,-39.55078125,-20.99609375,-47.36328125,-53.7109375
123.453125,-67.3828125,-21.484375,-48.828125,-58.10546875
123.45703125,-61.5234375,-15.625,-41.015625,-61.03515625
123.4609375,-39.55078125,-20.01953125,-39.0625,-47.36328125
123.46484375,-55.6640625,-26.3671875,-41.9921875,-41.50390625
123.46875,-70.3125,-22.4609375,-43.9453125,-56.15234375
123.47265625,-54.6875,-23.92578125,-41.9921875,-43.45703125
123.4765625,-41.015625,-24.90234375,-40.0390625,-37.59765625
123.48046875,-46.38671875,-21.484375,-42.48046875,-45.41015625
123.484375,-53.7109375,-16.6015625,-43.9453125,-35.15625
123.48828125,-40.52734375,-19.04296875,-48.33984375,-46.38671875
123.4921875,-41.015625,-29.78515625,-48.828125,-49.8046875
123.49609375,-48.828125,-19.04296875,-43.9453125,-36.1328125
123.5,-55.17578125,-10.7421875,-38.0859375,-38.57421875
123.50390625,-53.22265625,-26.3671875,-40.52734375,-47.8515625
123.5078125,-42.48046875,-30.2734375,-39.55078125,-41.50390625
123.51171875,-45.8984375,-26.3671875,-31.25,-41.015625
123.515625,-51.7578125,-24.90234375,-26.3671875,-54.6875
123.51953125,-56.640625,-23.4375,-22.4609375,-61.03515625
123.5234375,-54.19921875,-23.92578125,-19.53125,-57.12890625
123.52734375,-63.4765625,-20.5078125,-14.16015625,-53.22265625
123.53125,-73.73046875,-20.5078125,-7.8125,-36.62109375
123.53515625,-62.5,-19.04296875,-7.8125,-37.59765625
123.5390625,-55.17578125,-15.13671875,-13.671875,-54.6875
123.54296875,-64.453125,-28.3203125,-17.578125,-50.78125
123.546875,-70.3125,-30.76171875,-19.53125,-50.78125
123.55078125,-64.94140625,-31.73828125,-18.06640625,-39.55078125
123.5546875,-75.68359375,-36.62109375,-20.99609375,-41.50390625
123.55859375,-74.21875,-33.203125,-17.578125,-41.9921875
123.5625,-60.05859375,-33.69140625,-13.18359375,-22.4609375
123.56640625,-66.40625,-33.203125,-23.4375,-40.0390625
123.5703125,-65.4296875,-24.90234375,-34.66796875,-40.52734375
123.57421875,-71.77734375,-22.4609375,-38.0859375,-33.69140625
123.578125,-80.078125,-27.34375,-27.83203125,-30.2734375
123.58203125,-77.1484375,-27.83203125,-24.90234375,-26.3671875
123.5859375,-76.66015625,-30.76171875,-33.203125,-34.1796875
123.58984375,-85.9375,-32.2265625,-37.109375,-30.2734375
123.59375,-91.30859375,-33.69140625,-38.57421875,-27.83203125
123.59765625,-70.80078125,-20.01953125,-20.99609375,-18.06640625
123.6015625,-57.6171875,-20.01953125,-9.765625,-29.296875
123.60546875,-70.80078125,-33.203125,-12.20703125,-35.64453125
123.609375,-64.94140625,-31.25,-14.16015625,-32.71484375
123.61328125,-56.15234375,-28.3203125,-15.625,-28.80859375
123.6171875,-69.82421875,-23.92578125,-9.765625,-14.16015625
123.62109375,-69.82421875,-27.83203125,-2.9296875,-21.484375
123.625,-81.54296875,-32.71484375,-8.7890625,-33.203125
123.62890625,-79.1015625,-27.83203125,-15.13671875,-40.52734375
123.6328125,-72.265625,-34.1796875,-22.4609375,-53.7109375
123.63671875,-89.35546875,-38.0859375,-19.04296875,-53.22265625
123.640625,-72.75390625,-27.34375,-9.27734375,-45.8984375
123.64453125,-61.5234375,-28.80859375,-3.90625,-55.17578125
123.6484375,-60.05859375,-35.15625,-0.9765625,-48.33984375
123.65234375,-58.59375,-39.55078125,2.44140625,-34.66796875
123.65625,-60.05859375,-36.62109375,1.46484375,-52.734375
123.66015625,-71.2890625,-30.2734375,-12.20703125,-55.6640625
123.6640625,-82.51953125,-28.3203125,-13.671875,-58.10546875
123.66796875,-82.51953125,-31.25,-21.97265625,-56.15234375
123.671875,-71.77734375,-28.3203125,-28.80859375,-44.43359375
123.67578125,-72.265625,-28.3203125,-21.97265625,-50.29296875
123.6796875,-69.82421875,-37.109375,-17.578125,-39.55078125
123.68359375,-61.5234375,-34.66796875,-20.01953125,-45.8984375
123.6875,-57.6171875,-30.76171875,-24.90234375,-61.03515625
123.69140625,-52.734375,-29.296875,-22.94921875,-49.8046875
123.6953125,-45.8984375,-29.296875,-23.4375,-40.0390625
123.69921875,-51.26953125,-25.390625,-31.25,-37.109375
123.703125,-49.8046875,-25.87890625,-32.71484375,-41.015625
123.70703125,-53.22265625,-22.94921875,-29.78515625,-55.6640625
123.7109375,-77.63671875,-15.625,-29.78515625,-49.31640625
123.71484375,-51.7578125,-16.11328125,-24.4140625,-53.22265625
123.71875,-32.2265625,-15.13671875,-18.06640625,-60.546875
123.72265625,-43.45703125,-12.6953125,-12.20703125,-46.38671875
123.7265625,-36.1328125,-18.5546875,-8.7890625,-41.015625
123.73046875,-52.734375,-18.5546875,-2.44140625,-35.64453125
123.734375,-55.6640625,-17.08984375,5.859375,-36.1328125
123.73828125,-35.15625,-17.578125,11.23046875,-39.0625
123.7421875,-38.57421875,-16.6015625,16.11328125,-32.2265625
123.74609375,-43.9453125,-19.53125,18.06640625,-37.109375
123.75,-46.38671875,-16.11328125,12.20703125,-53.7109375
123.75390625,-49.8046875,-10.7421875,8.30078125,-44.43359375
123.7578125,-47.8515625,-15.625,16.6015625,-35.15625
123.76171875,-44.921875,-17.578125,19.04296875,-49.8046875
123.765625,-40.52734375,-13.671875,10.25390625,-49.8046875
123.76953125,-48.828125,-18.06640625,18.06640625,-31.25
123.7734375,-60.05859375,-23.4375,28.3203125,-29.78515625
123.77734375,-63.96484375,-28.80859375,19.04296875,-29.78515625
123.78125,-38.0859375,-31.73828125,6.34765625,-36.62109375
123.78515625,-34.66796875,-22.4609375,-3.90625,-38.57421875
123.7890625,-52.24609375,-15.625,-16.11328125,-32.2265625
123.79296875,-43.9453125,-18.06640625,-22.94921875,-33.203125
123.796875,-53.22265625,-22.94921875,-18.5546875,-42.48046875
123.80078125,-58.59375,-22.94921875,-12.6953125,-36.1328125
123.8046875,-54.6875,-21.484375,-18.06640625,-28.3203125
123.80859375,-48.33984375,-24.90234375,-18.5546875,-35.15625
123.8125,-51.7578125,-26.85546875,-20.01953125,-49.31640625
123.81640625,-49.31640625,-34.66796875,-20.99609375,-52.24609375
123.8203125,-23.4375,-38.0859375,-19.53125,-35.15625
123.82421875,-29.296875,-26.85546875,-19.04296875,-27.34375
123.828125,-39.55078125,-25.390625,-19.04296875,-20.01953125
123.83203125,-48.828125,-23.92578125,-23.92578125,-21.484375
123.8359375,-51.7578125,-33.203125,-27.34375,-42.96875
123.83984375,-53.22265625,-36.1328125,-37.109375,-42.96875
123.84375,-64.453125,-24.90234375,-48.828125,-42.96875
123.84765625,-57.12890625,-28.3203125,-54.6875,-53.22265625
123.8515625,-50.29296875,-34.1796875,-46.875,-37.59765625
123.85546875,-61.03515625,-33.203125,-38.57421875,-40.0390625
123.859375,-68.359375,-28.80859375,-28.80859375,-40.52734375
123.86328125,-54.6875,-31.73828125,-18.5546875,-25.390625
123.8671875,-42.48046875,-33.203125,-28.80859375,-24.90234375
123.87109375,-36.1328125,-24.4140625,-38.0859375,-25.390625
123.875,-30.76171875,-24.4140625,-38.57421875,-24.4140625
123.87890625,-34.66796875,-41.50390625,-38.0859375,-26.3671875
123.8828125,-27.83203125,-33.203125,-43.45703125,-37.59765625
123.88671875,-49.31640625,-23.4375,-46.38671875,-39.0625
123.890625,-77.63671875,-27.83203125,-44.43359375,-22.4609375
123.89453125,-57.12890625,-24.4140625,-41.50390625,-32.71484375
123.8984375,-41.50390625,-26.85546875,-41.9921875,-38.57421875
123.90234375,-41.50390625,-21.484375,-44.43359375,-18.5546875
123.90625,-45.41015625,-20.5078125,-41.015625,-9.27734375
123.91015625,-31.25,-18.06640625,-31.25,-12.6953125
123.9140625,6.8359375,-14.16015625,-29.78515625,-18.06640625
123.91796875,17.578125,-34.66796875,-49.31640625,-34.66796875
123.921875,26.3671875,-21.484375,-60.546875,-49.8046875
123.92578125,-3.90625,-1.953125,-52.734375,-44.921875
123.9296875,-37.109375,-5.859375,-49.31640625,-42.48046875
123.93359375,-36.62109375,-5.37109375,-54.6875,-27.34375
123.9375,-79.1015625,-14.16015625,-55.17578125,-28.3203125
123.94140625,-75.68359375,-10.7421875,-55.17578125,-46.38671875
123.9453125,-62.98828125,-5.859375,-48.828125,-67.3828125
123.94921875,-40.52734375,-7.32421875,-38.57421875,-60.05859375
123.953125,-27.34375,-0.48828125,-33.69140625,-47.8515625
123.95703125,-35.64453125,3.90625,-37.109375,-54.19921875
123.9609375,-33.69140625,5.37109375,-37.109375,-42.48046875
123.96484375,-27.34375,7.8125,-26.85546875,-56.640625
123.96875,-20.01953125,8.30078125,-30.2734375,-68.359375
123.97265625,-11.23046875,15.13671875,-41.015625,-63.96484375
123.9765625,-12.20703125,5.859375,-53.22265625,-64.453125
123.98046875,-25.87890625,-2.44140625,-50.78125,-59.5703125
123.984375,-31.73828125,8.7890625,-42.96875,-66.40625
123.98828125,-28.80859375,2.9296875,-37.59765625,-61.03515625
123.9921875,-35.15625,-9.765625,-35.15625,-58.10546875
123.99609375,-25.390625,-0.9765625,-40.52734375,-49.8046875
124.0,-6.34765625,5.37109375,-54.19921875,-40.52734375
124.00390625,-0.9765625,4.8828125,-50.78125,-36.1328125
124.0078125,-14.6484375,2.9296875,-46.875,-41.015625
124.01171875,-35.64453125,-7.32421875,-56.640625,-66.40625
124.015625,-24.90234375,-22.4609375,-49.31640625,-60.546875
124.01953125,-18.5546875,-26.85546875,-42.48046875,-51.26953125
124.0234375,-23.4375,-7.8125,-50.78125,-58.59375
124.02734375,-6.8359375,-3.41796875,-52.734375,-51.26953125
124.03125,3.41796875,-8.7890625,-40.0390625,-42.48046875
124.03515625,0.48828125,-8.30078125,-39.0625,-44.43359375
124.0390625,-5.859375,-3.41796875,-47.36328125,-46.38671875
124.04296875,-9.27734375,-4.8828125,-49.8046875,-37.59765625
124.046875,-5.37109375,-4.39453125,-59.5703125,-32.2265625
124.05078125,-10.25390625,0.48828125,-58.59375,-32.71484375
124.0546875,-25.390625,-11.71875,-57.12890625,-30.2734375
124.05859375,-17.08984375,-30.2734375,-58.59375,-28.3203125
124.0625,-15.13671875,-22.94921875,-55.17578125,-16.11328125
124.06640625,-30.2734375,-18.06640625,-53.22265625,-17.08984375
124.0703125,-36.1328125,-19.53125,-51.26953125,-26.3671875
124.07421875,-39.0625,-16.6015625,-52.734375,-27.83203125
124.078125,-50.78125,-18.06640625,-55.6640625,-22.4609375
124.08203125,-35.64453125,-19.53125,-53.22265625,-20.5078125
124.0859375,-48.828125,-20.99609375,-53.22265625,-21.484375
124.08984375,-63.96484375,-17.08984375,-60.05859375,-32.2265625
124.09375,-47.36328125,-13.671875,-62.98828125,-36.62109375
124.09765625,-57.12890625,-17.578125,-56.640625,-33.69140625
124.1015625,-49.8046875,-26.85546875,-52.24609375,-41.50390625
124.10546875,-31.73828125,-25.390625,-47.8515625,-32.71484375
124.109375,-26.85546875,-17.08984375,-42.48046875,-35.64453125
124.11328125,-32.2265625,-16.11328125,-37.59765625,-33.203125
124.1171875,-29.78515625,-29.296875,-33.203125,-18.5546875
124.12109375,-36.62109375,-30.76171875,-24.4140625,-23.92578125
124.125,-38.57421875,-21.484375,-16.11328125,-22.94921875
124.12890625,-43.9453125,-19.53125,-28.3203125,-42.48046875
124.1328125,-54.19921875,-21.97265625,-30.2734375,-63.96484375
124.13671875,-38.57421875,-26.85546875,-20.5078125,-47.8515625
124.140625,-39.0625,-21.484375,-12.20703125,-31.25
124.14453125,-37.59765625,-19.04296875,-4.8828125,-20.5078125
124.1484375,-46.875,-21.97265625,-9.765625,-18.5546875
124.15234375,-47.8515625,-18.5546875,-11.71875,-29.296875
124.15625,-41.50390625,-34.1796875,-8.7890625,-20.99609375
124.16015625,-49.8046875,-40.0390625,-4.8828125,-30.76171875
124.1640625,-51.7578125,-16.6015625,-1.46484375,-33.69140625
124.16796875,-54.19921875,-12.20703125,3.90625,-18.06640625
124.171875,-49.31640625,-14.16015625,7.8125,-25.390625
124.17578125,-24.90234375,-14.16015625,11.23046875,-28.80859375
124.1796875,-34.1796875,-24.4140625,10.25390625,-33.203125
124.18359375,-35.64453125,-29.78515625,12.6953125,-29.78515625
124.1875,-31.73828125,-22.94921875,16.11328125,-25.87890625
124.19140625,-39.0625,-14.16015625,15.625,-27.34375
124.1953125,-28.80859375,-24.90234375,19.53125,-20.99609375
124.19921875,-28.3203125,-35.15625,20.5078125,-19.04296875
124.203125,-43.45703125,-20.01953125,15.625,-36.62109375
124.20703125,-37.109375,-17.08984375,9.27734375,-28.80859375
124.2109375,-28.3203125,-24.4140625,3.41796875,-22.4609375
124.21484375,-47.8515625,-22.94921875,-4.39453125,-33.203125
124.21875,-34.1796875,-20.99609375,-7.32421875,-22.94921875
124.22265625,-17.578125,-17.578125,3.41796875,-22.94921875
124.2265625,-28.80859375,-20.5078125,4.39453125,-16.6015625
124.23046875,-35.15625,-29.296875,-3.41796875,-23.4375
124.234375,-36.62109375,-29.78515625,-7.32421875,-33.69140625
124.23828125,-35.15625,-30.2734375,4.8828125,-35.64453125
124.2421875,-47.8515625,-31.73828125,17.578125,-42.96875
124.24609375,-51.26953125,-26.3671875,15.625,-42.96875
124.25,-44.43359375,-23.92578125,20.5078125,-37.109375
124.25390625,-41.50390625,-20.99609375,18.5546875,-25.87890625
124.2578125,-37.59765625,-38.57421875,20.5078125,-19.04296875
124.26171875,-34.1796875,-41.9921875,23.92578125,-30.76171875
124.265625,-37.59765625,-19.53125,19.53125,-37.59765625
124.26953125,-36.62109375,-12.6953125,19.04296875,-26.3671875
124.2734375,-37.109375,-13.671875,18.5546875,-39.55078125
124.27734375,-47.8515625,-21.97265625,20.01953125,-33.203125
124.28125,-56.15234375,-23.4375,25.390625,-29.296875
124.28515625,-46.38671875,-21.484375,19.04296875,-40.52734375
124.2890625,-35.15625,-21.97265625,13.18359375,-14.16015625
124.29296875,-43.45703125,-20.99609375,8.30078125,-7.8125
124.296875,-34.1796875,-24.90234375,10.25390625,-33.69140625
124.30078125,-11.23046875,-25.390625,18.5546875,-35.64453125
124.3046875,-26.3671875,-16.6015625,15.13671875,-12.6953125
124.30859375,-30.76171875,-18.5546875,11.23046875,-13.18359375
124.3125,-19.04296875,-21.97265625,14.6484375,-23.4375
124.31640625,-19.53125,-13.671875,19.53125,-20.99609375
124.3203125,-27.83203125,-15.13671875,11.23046875,-30.2734375
124.32421875,-37.109375,-17.08984375,5.859375,-38.0859375
124.328125,-42.48046875,-15.13671875,11.23046875,-24.4140625
124.33203125,-56.15234375,-20.5078125,3.41796875,-29.296875
124.3359375,-41.50390625,-45.41015625,3.41796875,-41.50390625
124.33984375,-33.203125,-57.12890625,6.8359375,-24.4140625
124.34375,-51.7578125,-34.1796875,-6.8359375,-25.87890625
124.34765625,-54.6875,-30.2734375,-5.37109375,-42.48046875
124.3515625,-55.17578125,-18.06640625,7.8125,-48.828125
124.35546875,-44.921875,-12.20703125,10.7421875,-39.0625
124.359375,-32.71484375,-14.16015625,3.41796875,-34.66796875
124.36328125,-38.0859375,-9.765625,-5.37109375,-37.59765625
124.3671875,-45.41015625,-16.11328125,-3.90625,-29.78515625
124.37109375,-53.7109375,-19.04296875,6.34765625,-36.1328125
124.375,-58.59375,-17.578125,9.27734375,-37.59765625
124.37890625,-62.01171875,-21.484375,0.9765625,-35.15625
124.3828125,-69.3359375,-24.90234375,-5.37109375,-45.41015625
124.38671875,-60.546875,-26.3671875,-15.625,-40.0390625
124.390625,-65.91796875,-23.92578125,-17.578125,-32.2265625
124.39453125,-66.40625,-24.4140625,-11.23046875,-39.55078125
124.3984375,-57.6171875,-45.41015625,-8.7890625,-24.90234375
124.40234375,-74.70703125,-39.0625,-6.34765625,-11.71875
124.40625,-60.546875,-22.4609375,1.46484375,-19.53125
124.41015625,-45.41015625,-20.01953125,3.90625,-29.296875
124.4140625,-56.640625,-18.5546875,-7.8125,-36.1328125
124.41796875,-54.6875,-24.4140625,-9.765625,-41.015625
124.421875,-50.29296875,-26.85546875,-0.9765625,-31.73828125
124.42578125,-49.8046875,-21.484375,-0.48828125,-35.64453125
124.4296875,-42.48046875,-23.92578125,-4.8828125,-45.8984375
124.43359375,-32.2265625,-19.53125,-5.37109375,-23.92578125
124.4375,-36.1328125,-50.29296875,4.8828125,-17.578125
124.44140625,-33.69140625,-51.7578125,14.16015625,-36.62109375
124.4453125,-28.3203125,-16.11328125,0.9765625,-45.8984375
124.44921875,-36.62109375,-14.16015625,-5.37109375,-37.59765625
124.453125,-53.7109375,-13.18359375,-2.44140625,-36.1328125
124.45703125,-48.828125,-20.5078125,-3.41796875,-37.59765625
124.4609375,-39.0625,-20.99609375,-0.9765625,-48.33984375
124.46484375,-38.0859375,-15.13671875,-5.37109375,-48.828125
124.46875,-30.76171875,-19.53125,-16.6015625,-30.2734375
124.47265625,-34.1796875,-14.16015625,-19.53125,-15.625
124.4765625,-31.25,-38.57421875,-16.11328125,-5.37109375
124.48046875,-37.59765625,-50.29296875,-21.97265625,-10.25390625
124.484375,-39.0625,-19.04296875,-28.3203125,-19.53125
124.48828125,-34.66796875,-11.71875,-34.1796875,-19.53125
124.4921875,-42.48046875,-15.13671875,-38.57421875,-36.1328125
124.49609375,-36.1328125,-23.92578125,-27.83203125,-30.2734375
124.5,-39.55078125,-16.6015625,-23.92578125,-16.6015625
124.50390625,-54.6875,-15.13671875,-23.92578125,-35.15625
124.5078125,-78.125,-19.53125,-20.99609375,-37.109375
124.51171875,-73.73046875,-25.87890625,-23.4375,-28.3203125
124.515625,-36.1328125,-30.2734375,-29.78515625,-22.4609375
124.51953125,-28.80859375,-26.3671875,-26.3671875,-24.4140625
124.5234375,-34.66796875,-15.13671875,-26.85546875,-48.828125
124.52734375,-28.80859375,-17.08984375,-41.50390625,-43.45703125
124.53125,-25.390625,-21.484375,-41.9921875,-28.3203125
124.53515625,-33.203125,-36.1328125,-24.90234375,-29.296875
124.5390625,-34.1796875,-54.6875,-9.27734375,-25.390625
124.54296875,-29.78515625,-38.57421875,-12.6953125,-25.87890625
124.546875,-42.48046875,-32.71484375,-20.5078125,-20.5078125
124.55078125,-61.5234375,-41.50390625,-12.20703125,-15.625
124.5546875,-63.4765625,-43.45703125,-4.39453125,-28.80859375
124.55859375,-58.59375,-45.8984375,1.953125,-19.04296875
124.5625,-46.38671875,-46.875,2.9296875,-4.39453125
124.56640625,-41.015625,-47.8515625,9.27734375,0.9765625
124.5703125,-41.9921875,-52.734375,9.27734375,-1.953125
124.57421875,-43.9453125,-54.19921875,6.34765625,-3.41796875
124.578125,-54.19921875,-74.70703125,9.765625,5.37109375
124.58203125,-65.91796875,-75.1953125,15.625,11.23046875
124.5859375,-85.44921875,-62.5,10.25390625,3.90625
124.58984375,-69.3359375,-62.01171875,-0.9765625,-2.44140625
124.59375,-55.6640625,-61.5234375,2.9296875,0.0
124.59765625,-51.26953125,-61.03515625,12.20703125,19.04296875
124.6015625,-40.52734375,-55.17578125,10.7421875,15.13671875
124.60546875,-42.48046875,-49.8046875,0.0,9.27734375
124.609375,-40.0390625,-43.9453125,7.32421875,16.6015625
124.61328125,-37.109375,-43.9453125,9.27734375,14.16015625
124.6171875,-34.1796875,-49.31640625,-1.953125,14.16015625
124.62109375,-33.69140625,-54.19921875,-5.37109375,12.6953125
124.625,-40.52734375,-45.41015625,-9.27734375,0.0
124.62890625,-41.50390625,-37.109375,-12.20703125,0.48828125
124.6328125,-41.9921875,-32.71484375,-16.11328125,0.48828125
124.63671875,-49.31640625,-43.45703125,-22.4609375,-3.90625
124.640625,-51.26953125,-47.8515625,-22.4609375,7.8125
124.64453125,-34.1796875,-36.62109375,-19.04296875,9.27734375
124.6484375,-27.83203125,-34.1796875,-19.53125,-2.9296875
124.65234375,-26.3671875,-31.73828125,-6.8359375,-4.8828125
124.65625,-33.69140625,-35.64453125,0.9765625,-0.9765625
124.66015625,-50.78125,-39.55078125,-9.765625,-10.25390625
124.6640625,-57.12890625,-40.52734375,-20.01953125,-16.11328125
124.66796875,-72.265625,-42.96875,-25.390625,-25.87890625
124.671875,-72.75390625,-41.9921875,-13.671875,-34.66796875
124.67578125,-53.7109375,-45.41015625,-5.859375,-17.578125
124.6796875,-39.55078125,-50.78125,-5.859375,-6.34765625
124.68359375,-29.296875,-39.55078125,-8.30078125,-8.30078125
124.6875,-27.83203125,-36.1328125,-10.25390625,-10.7421875
124.69140625,-42.96875,-35.15625,-13.18359375,-11.23046875
124.6953125,-49.31640625,-35.15625,-22.4609375,-19.04296875
124.69921875,-48.828125,-37.109375,-20.01953125,-33.69140625
124.703125,-64.94140625,-34.1796875,-23.4375,-34.66796875
124.70703125,-69.82421875,-39.0625,-25.390625,-19.04296875
124.7109375,-64.94140625,-38.0859375,-22.4609375,-9.27734375
124.71484375,-57.6171875,-42.96875,-25.87890625,-8.30078125
124.71875,-42.96875,-59.08203125,-29.296875,-10.7421875
124.72265625,-43.9453125,-42.96875,-27.83203125,-13.671875
124.7265625,-47.36328125,-33.203125,-25.390625,-18.06640625
124.73046875,-49.8046875,-28.3203125,-26.3671875,-23.92578125
124.734375,-48.828125,-19.53125,-21.97265625,-33.69140625
124.73828125,-39.55078125,-26.3671875,-25.390625,-36.62109375
124.7421875,-14.16015625,-25.87890625,-31.25,-34.1796875
124.74609375,-7.8125,-20.5078125,-35.15625,-36.62109375
124.75,-29.78515625,-22.4609375,-27.83203125,-20.99609375
124.75390625,-27.83203125,-24.90234375,-14.6484375,-20.5078125
124.7578125,-19.53125,-37.109375,-11.23046875,-15.13671875
124.76171875,-41.50390625,-39.0625,-9.765625,-11.23046875
124.765625,-57.12890625,-25.390625,-9.765625,-26.85546875
124.76953125,-54.19921875,-20.5078125,-1.953125,-15.625
124.7734375,-47.8515625,-19.04296875,-0.9765625,-11.71875
124.77734375,-47.8515625,-15.625,2.9296875,-16.11328125
124.78125,-53.22265625,-14.16015625,2.44140625,-21.97265625
124.78515625,-52.24609375,-12.20703125,2.9296875,-22.4609375
124.7890625,-49.8046875,-16.6015625,9.765625,-25.87890625
124.79296875,-41.50390625,-22.4609375,12.20703125,-20.99609375
124.796875,-42.96875,-19.53125,10.7421875,-4.8828125
124.80078125,-44.921875,-20.01953125,1.953125,-0.48828125
124.8046875,-45.8984375,-23.4375,-2.44140625,-16.11328125
124.80859375,-42.96875,-20.99609375,-4.39453125,-33.203125
124.8125,-35.15625,-13.671875,-6.34765625,-29.78515625
124.81640625,-33.203125,-20.5078125,-6.8359375,-35.15625
124.8203125,-30.2734375,-23.92578125,-11.23046875,-34.1796875
124.82421875,-27.34375,-18.06640625,-12.6953125,-23.92578125
124.828125,-36.1328125,-18.5546875,-12.20703125,-16.6015625
124.83203125,-33.69140625,-21.97265625,-12.6953125,-0.9765625
124.8359375,-26.3671875,-25.87890625,-12.20703125,7.32421875
124.83984375,-37.59765625,-29.296875,-20.01953125,-2.9296875
124.84375,-28.80859375,-24.4140625,-29.78515625,-14.16015625
124.84765625,-18.5546875,-21.97265625,-28.3203125,-18.5546875
124.8515625,-33.203125,-24.4140625,-32.71484375,-26.3671875
124.85546875,-40.52734375,-27.83203125,-39.0625,-34.66796875
124.859375,-40.52734375,-32.2265625,-31.73828125,-12.6953125
124.86328125,-40.0390625,-24.4140625,-31.73828125,1.46484375
124.8671875,-39.0625,-21.484375,-34.1796875,-6.8359375
124.87109375,-52.24609375,-25.87890625,-35.15625,-8.30078125
124.875,-53.22265625,-34.66796875,-37.59765625,-0.48828125
124.87890625,-43.45703125,-36.62109375,-40.0390625,-8.30078125
124.8828125,-50.78125,-25.87890625,-49.31640625,-17.08984375
124.88671875,-41.015625,-20.5078125,-55.17578125,-18.06640625
124.890625,-25.390625,-15.13671875,-49.8046875,-5.859375
124.89453125,-27.34375,-12.6953125,-50.78125,-7.8125
124.8984375,-23.4375,-51.7578125,-54.6875,-20.5078125
124.90234375,-20.5078125,-51.26953125,-49.31640625,-7.32421875
124.90625,-30.2734375,-20.5078125,-43.45703125,-1.953125
124.91015625,-39.55078125,-20.5078125,-45.41015625,-12.20703125
124.9140625,-43.9453125,-18.5546875,-41.9921875,-11.71875
124.91796875,-42.96875,-18.06640625,-33.203125,-9.765625
124.921875,-27.83203125,-14.16015625,-45.41015625,-21.97265625
124.92578125,-9.27734375,-12.6953125,-54.19921875,-28.80859375
124.9296875,-25.390625,-15.625,-55.6640625,-28.3203125
124.93359375,-40.0390625,-15.13671875,-54.6875,-27.34375
124.9375,-27.34375,-16.6015625,-48.828125,-34.66796875
124.94140625,-27.83203125,-21.97265625,-40.0390625,-35.64453125
124.9453125,-21.484375,-20.01953125,-34.1796875,-23.4375
124.94921875,-19.04296875,-20.5078125,-36.62109375,-18.5546875
124.953125,-29.296875,-28.80859375,-38.0859375,-18.06640625
124.95703125,-37.109375,-36.1328125,-39.0625,-24.4140625
124.9609375,-43.45703125,-30.2734375,-40.0390625,-28.80859375
124.96484375,-31.25,-21.97265625,-40.0390625,-27.83203125
124.96875,-33.203125,-17.08984375,-34.66796875,-30.2734375
124.97265625,-46.38671875,-12.6953125,-32.71484375,-30.2734375
124.9765625,-38.57421875,-24.4140625,-30.2734375,-25.390625
124.98046875,-43.9453125,-26.3671875,-29.296875,-43.9453125
124.984375,-57.6171875,-19.53125,-38.0859375,-48.33984375
124.98828125,-51.7578125,-22.94921875,-42.96875,-32.2265625
124.9921875,-33.69140625,-25.87890625,-35.64453125,-20.01953125
124.99609375,-32.2265625,-31.73828125,-37.109375,-18.06640625
125.0,-40.52734375,-32.71484375,-38.0859375,-26.3671875
125.00390625,-40.52734375,-22.4609375,-33.69140625,-24.90234375
125.0078125,-34.1796875,-17.08984375,-44.921875,-24.4140625
125.01171875,-41.9921875,-15.13671875,-51.26953125,-26.85546875
125.015625,-49.31640625,-15.625,-53.22265625,-40.0390625
125.01953125,-37.109375,-20.01953125,-64.94140625,-36.62109375
125.0234375,-41.9921875,-21.484375,-60.546875,-27.83203125
125.02734375,-48.828125,-22.94921875,-50.29296875,-25.390625
125.03125,-40.52734375,-21.97265625,-46.38671875,-10.7421875
125.03515625,-48.33984375,-22.94921875,-41.015625,-14.16015625
125.0390625,-53.7109375,-37.109375,-39.0625,-23.92578125
125.04296875,-45.8984375,-37.109375,-37.59765625,-29.78515625
125.046875,-56.15234375,-32.71484375,-34.66796875,-45.8984375
125.05078125,-58.59375,-32.71484375,-38.0859375,-36.62109375
125.0546875,-51.7578125,-25.390625,-41.9921875,-24.90234375
125.05859375,-64.94140625,-24.90234375,-43.9453125,-28.3203125
125.0625,-58.10546875,-31.73828125,-42.48046875,-28.3203125
125.06640625,-55.17578125,-33.69140625,-31.73828125,-26.3671875
125.0703125,-58.10546875,-36.1328125,-24.4140625,-18.06640625
125.07421875,-44.921875,-35.15625,-27.34375,-15.625
125.078125,-44.43359375,-30.76171875,-20.5078125,-20.5078125
125.08203125,-50.78125,-28.80859375,-18.06640625,-12.6953125
125.0859375,-61.5234375,-31.25,-25.390625,-19.04296875
125.08984375,-69.3359375,-31.73828125,-29.296875,-35.64453125
125.09375,-44.43359375,-26.3671875,-35.64453125,-27.34375
125.09765625,-35.64453125,-43.45703125,-35.15625,-9.27734375
125.1015625,-61.03515625,-47.36328125,-30.2734375,-17.08984375
125.10546875,-70.80078125,-28.3203125,-32.2265625,-20.99609375
125.109375,-65.91796875,-31.25,-36.62109375,-23.4375
125.11328125,-66.40625,-31.25,-33.69140625,-39.0625
125.1171875,-59.5703125,-29.78515625,-29.78515625,-32.2265625
125.12109375,-54.6875,-32.71484375,-38.0859375,-43.45703125
125.125,-45.41015625,-29.296875,-40.52734375,-50.29296875
125.12890625,-41.9921875,-26.3671875,-43.45703125,-31.25
125.1328125,-39.0625,-22.4609375,-47.36328125,-16.11328125
125.13671875,-47.8515625,-41.015625,-42.48046875,-14.16015625
125.140625,-57.12890625,-51.26953125,-38.0859375,-20.5078125
125.14453125,-43.45703125,-26.85546875,-38.0859375,-19.04296875
125.1484375,-39.55078125,-22.4609375,-39.0625,-27.34375
125.15234375,-36.1328125,-20.99609375,-40.52734375,-40.52734375
125.15625,-18.06640625,-21.97265625,-40.52734375,-33.203125
125.16015625,-19.04296875,-20.5078125,-39.0625,-31.73828125
125.1640625,-41.015625,-20.5078125,-41.015625,-33.203125
125.16796875,-46.875,-20.99609375,-35.15625,-28.3203125
125.171875,-50.29296875,-17.08984375,-31.73828125,-34.1796875
125.17578125,-50.29296875,-21.484375,-33.203125,-31.25
125.1796875,-41.015625,-31.25,-27.83203125,-26.85546875
125.18359375,-23.4375,-24.4140625,-26.85546875,-24.90234375
125.1875,-16.6015625,-20.5078125,-25.87890625,-19.53125
125.19140625,-26.3671875,-25.87890625,-21.484375,-36.1328125
125.1953125,-35.15625,-34.1796875,-22.4609375,-41.9921875
125.19921875,-41.9921875,-50.78125,-26.85546875,-37.109375
125.203125,-43.9453125,-37.59765625,-19.04296875,-24.4140625
125.20703125,-54.6875,-24.90234375,-15.625,-19.04296875
125.2109375,-60.546875,-27.83203125,-21.484375,-27.34375
125.21484375,-57.6171875,-26.3671875,-13.671875,-31.73828125
125.21875,-41.9921875,-24.4140625,-12.20703125,-33.203125
125.22265625,-20.99609375,-24.90234375,-19.53125,-35.15625
125.2265625,-26.3671875,-28.3203125,-16.6015625,-31.73828125
125.23046875,-39.55078125,-18.06640625,-18.06640625,-15.13671875
125.234375,-28.80859375,-15.13671875,-21.97265625,-7.32421875
125.23828125,-28.3203125,-28.80859375,-19.04296875,-20.01953125
125.2421875,-41.9921875,-20.99609375,-15.13671875,-28.80859375
125.24609375,-40.0390625,-20.99609375,-16.6015625,-18.06640625
125.25,-34.66796875,-33.69140625,-20.01953125,-19.53125
125.25390625,-27.34375,-22.4609375,-20.99609375,-14.16015625
125.2578125,-20.01953125,-18.5546875,-18.5546875,-9.27734375
125.26171875,-26.3671875,-26.3671875,-12.6953125,-16.11328125
125.265625,-21.97265625,-22.94921875,-16.6015625,-24.90234375
125.26953125,-28.3203125,-23.92578125,-20.5078125,-21.484375
125.2734375,-28.80859375,-22.4609375,-14.6484375,-20.99609375
125.27734375,-25.390625,-34.1796875,-9.27734375,-32.71484375
125.28125,-41.015625,-38.0859375,-3.90625,-28.3203125
125.28515625,-32.71484375,-25.390625,-6.34765625,-12.20703125
125.2890625,-42.48046875,-26.3671875,-16.11328125,-14.16015625
125.29296875,-49.8046875,-28.80859375,-17.578125,-27.34375
125.296875,-37.59765625,-36.1328125,-15.625,-23.92578125
125.30078125,-27.83203125,-20.5078125,-32.2265625,-13.18359375
125.3046875,-41.50390625,-15.625,-41.50390625,-17.08984375
125.30859375,-42.48046875,-31.25,-39.0625,-28.80859375
125.3125,-38.0859375,-30.2734375,-39.55078125,-35.64453125
125.31640625,-61.5234375,-43.9453125,-32.71484375,-36.62109375
125.3203125,-59.5703125,-48.828125,-35.64453125,-29.296875
125.32421875,-54.6875,-30.2734375,-39.0625,-25.87890625
125.328125,-70.80078125,-25.390625,-33.69140625,-32.71484375
125.33203125,-46.38671875,-23.92578125,-20.99609375,-29.78515625
125.3359375,-25.87890625,-26.85546875,-28.3203125,-22.94921875
125.33984375,-38.0859375,-25.390625,-33.69140625,-18.06640625
125.34375,-28.3203125,-20.5078125,-22.94921875,-24.4140625
125.34765625,-30.2734375,-23.92578125,-15.13671875,-36.1328125
125.3515625,-48.828125,-25.390625,-17.08984375,-39.0625
125.35546875,-56.15234375,-31.73828125,-13.671875,-32.2265625
125.359375,-61.03515625,-32.2265625,-1.46484375,-28.3203125
125.36328125,-50.78125,-23.92578125,1.953125,-32.2265625
125.3671875,-47.36328125,-26.3671875,-6.8359375,-36.1328125
125.37109375,-38.0859375,-26.3671875,-10.25390625,-20.5078125
125.375,-5.37109375,-29.296875,-17.08984375,6.34765625
125.37890625,12.20703125,-37.59765625,-23.92578125,8.30078125
125.3828125,-13.18359375,-18.5546875,-20.01953125,-1.46484375
125.38671875,-36.62109375,-12.20703125,-23.92578125,-11.71875
125.390625,-22.94921875,-14.16015625,-24.90234375,-17.08984375
125.39453125,-25.390625,-11.71875,-24.90234375,-29.296875
125.3984375,-36.1328125,-12.20703125,-20.5078125,-45.8984375
125.40234375,-38.0859375,-2.44140625,-20.01953125,-46.38671875
125.40625,-32.2265625,-0.9765625,-31.25,-39.55078125
125.41015625,-31.73828125,-8.7890625,-38.0859375,-40.52734375
125.4140625,-28.80859375,-5.859375,-39.0625,-31.73828125
125.41796875,-10.25390625,-13.671875,-50.29296875,-30.76171875
125.421875,-12.20703125,-12.6953125,-66.40625,-46.38671875
125.42578125,-25.390625,6.34765625,-55.17578125,-55.6640625
125.4296875,-17.578125,11.23046875,-45.41015625,-63.4765625
125.43359375,-15.13671875,12.20703125,-47.36328125,-63.96484375
125.4375,-20.99609375,15.625,-46.875,-63.96484375
125.44140625,-13.671875,18.06640625,-50.78125,-80.56640625
125.4453125,-23.4375,13.18359375,-62.98828125,-88.8671875
125.44921875,-26.85546875,16.6015625,-67.87109375,-77.63671875
125.453125,-8.7890625,24.4140625,-75.1953125,-77.1484375
125.45703125,-2.44140625,17.08984375,-87.890625,-85.44921875
125.4609375,-0.9765625,15.13671875,-87.890625,-80.078125
125.46484375,9.27734375,13.671875,-80.56640625,-77.63671875
125.46875,13.18359375,4.8828125,-74.70703125,-74.70703125
125.47265625,0.9765625,6.34765625,-71.2890625,-75.1953125
125.4765625,5.37109375,-2.44140625,-57.6171875,-53.7109375
125.48046875,-4.39453125,-7.32421875,-53.7109375,-49.31640625
125.484375,-24.90234375,0.0,-58.59375,-60.05859375
125.48828125,-19.04296875,-6.8359375,-52.24609375,-44.43359375
125.4921875,-26.85546875,-1.953125,-44.921875,-41.015625
125.49609375,-29.78515625,-3.41796875,-44.921875,-37.59765625
125.5,-22.4609375,-16.11328125,-39.55078125,-26.85546875
125.50390625,-26.3671875,-12.20703125,-41.015625,-28.80859375
125.5078125,-37.59765625,-20.99609375,-43.9453125,-38.0859375
125.51171875,-62.98828125,-25.390625,-35.15625,-32.71484375
125.515625,-43.9453125,-18.5546875,-28.80859375,-26.85546875
125.51953125,-19.04296875,-21.97265625,-26.85546875,-29.78515625
125.5234375,-25.390625,-14.16015625,-25.87890625,-30.76171875
125.52734375,-13.18359375,-14.6484375,-29.78515625,-23.4375
125.53125,-20.5078125,-21.97265625,-32.71484375,-25.390625
125.53515625,-19.04296875,-21.97265625,-28.80859375,-31.25
125.5390625,-7.8125,-19.04296875,-29.78515625,-18.5546875
125.54296875,-25.390625,-19.53125,-20.99609375,-20.99609375
125.546875,-19.53125,-20.01953125,-15.13671875,-17.08984375
125.55078125,-6.34765625,-16.6015625,-16.11328125,-7.32421875
125.5546875,-15.13671875,-20.99609375,-9.27734375,-11.23046875
125.55859375,-9.765625,-25.87890625,-3.90625,-12.20703125
125.5625,-17.578125,-22.94921875,-4.8828125,-19.04296875
125.56640625,-25.87890625,-27.34375,-13.18359375,-25.87890625
125.5703125,-19.04296875,-26.3671875,-22.4609375,-31.25
125.57421875,-5.859375,-19.53125,-21.484375,-17.08984375
125.578125,-4.8828125,-32.2265625,-26.85546875,-24.90234375
125.58203125,-13.18359375,-30.2734375,-28.3203125,-34.66796875
125.5859375,-14.6484375,-18.5546875,-18.06640625,-27.83203125
125.58984375,-11.71875,-18.5546875,-4.39453125,-25.87890625
125.59375,-25.87890625,-22.4609375,0.0,-9.27734375
125.59765625,-37.109375,-30.76171875,0.48828125,-11.23046875
125.6015625,-40.0390625,-27.83203125,4.8828125,-21.97265625
125.60546875,-43.9453125,-21.97265625,1.953125,-18.06640625
125.609375,-40.0390625,-20.99609375,-0.9765625,-25.87890625
125.61328125,-32.71484375,-17.08984375,-2.44140625,-21.484375
125.6171875,-35.15625,-28.3203125,-11.23046875,-7.8125
125.62109375,-47.36328125,-34.1796875,-17.08984375,-17.578125
125.625,-41.015625,-30.76171875,-16.11328125,-35.15625
125.62890625,-48.828125,-25.87890625,-16.6015625,-40.0390625
125.6328125,-49.31640625,-25.87890625,-17.578125,-31.73828125
125.63671875,-37.59765625,-28.80859375,-20.5078125,-29.296875
125.640625,-49.31640625,-23.92578125,-20.5078125,-20.5078125
125.64453125,-55.17578125,-21.97265625,-21.97265625,-27.34375
125.6484375,-35.64453125,-28.3203125,-23.4375,-38.0859375
125.65234375,-23.92578125,-26.85546875,-21.97265625,-20.5078125
125.65625,-32.2265625,-46.38671875,-23.92578125,-32.71484375
125.66015625,-20.5078125,-67.87109375,-20.99609375,-28.80859375
125.6640625,-8.30078125,-33.69140625,-16.11328125,-11.23046875
125.66796875,-12.20703125,-23.92578125,-25.87890625,-24.4140625
125.671875,-8.7890625,-31.73828125,-26.3671875,-29.78515625
125.67578125,-4.39453125,-26.85546875,-18.5546875,-29.296875
125.6796875,-12.20703125,-22.4609375,-31.73828125,-38.0859375
125.68359375,-32.2265625,-20.99609375,-36.62109375,-45.41015625
125.6875,-42.96875,-22.4609375,-27.34375,-38.57421875
125.69140625,-41.50390625,-20.5078125,-28.80859375,-37.59765625
125.6953125,-22.4609375,-31.25,-34.66796875,-24.4140625
125.69921875,-11.23046875,-43.9453125,-35.64453125,-19.04296875
125.703125,-28.3203125,-37.59765625,-40.52734375,-25.390625
125.70703125,-37.109375,-31.25,-50.78125,-22.94921875
125.7109375,-41.50390625,-27.83203125,-62.01171875,-24.90234375
125.71484375,-38.57421875,-29.78515625,-56.15234375,-22.4609375
125.71875,-31.25,-27.34375,-41.9921875,-29.296875
125.72265625,-49.31640625,-23.92578125,-38.0859375,-51.7578125
125.7265625,-64.453125,-28.80859375,-36.1328125,-55.6640625
125.73046875,-62.5,-32.71484375,-32.71484375,-45.8984375
125.734375,-53.7109375,-31.73828125,-24.4140625,-32.71484375
125.73828125,-48.33984375,-31.73828125,-19.53125,-21.484375
125.7421875,-44.921875,-31.25,-24.4140625,-34.1796875
125.74609375,-29.296875,-34.1796875,-24.90234375,-17.08984375
125.75,-32.71484375,-30.76171875,-28.3203125,-5.859375
125.75390625,-40.52734375,-20.99609375,-35.15625,-25.87890625
125.7578125,-32.2265625,-50.29296875,-30.76171875,-15.625
125.76171875,-34.66796875,-50.29296875,-29.296875,-11.23046875
125.765625,-45.8984375,-18.5546875,-38.0859375,-30.2734375
125.76953125,-49.31640625,-20.99609375,-41.50390625,-44.43359375
125.7734375,-42.48046875,-26.3671875,-40.52734375,-43.45703125
125.77734375,-36.1328125,-32.2265625,-38.57421875,-27.83203125
125.78125,-36.62109375,-27.34375,-40.0390625,-25.390625
125.78515625,-46.875,-20.01953125,-41.015625,-22.94921875
125.7890625,-36.62109375,-29.296875,-31.73828125,-15.625
125.79296875,-27.34375,-29.78515625,-19.04296875,-14.16015625
125.796875,-37.59765625,-47.8515625,-20.99609375,-21.97265625
125.80078125,-40.0390625,-61.03515625,-30.76171875,-25.87890625
125.8046875,-53.7109375,-28.80859375,-32.2265625,-28.3203125
125.80859375,-51.7578125,-23.4375,-25.87890625,-36.62109375
125.8125,-35.64453125,-30.2734375,-24.90234375,-31.73828125
125.81640625,-43.45703125,-33.69140625,-28.80859375,-23.4375
125.8203125,-46.38671875,-31.25,-26.85546875,-26.85546875
125.82421875,-53.7109375,-30.76171875,-20.5078125,-22.94921875
125.828125,-52.24609375,-36.62109375,-20.01953125,-15.13671875
125.83203125,-49.8046875,-28.80859375,-20.01953125,-10.25390625
125.8359375,-51.26953125,-41.9921875,-22.94921875,-12.20703125
125.83984375,-33.69140625,-63.96484375,-20.99609375,-18.5546875
125.84375,-36.1328125,-33.203125,-25.87890625,-23.92578125
125.84765625,-30.2734375,-11.23046875,-34.66796875,-14.6484375
125.8515625,-26.85546875,-12.20703125,-31.25,-6.34765625
125.85546875,-37.59765625,-12.6953125,-36.1328125,-16.11328125
125.859375,-25.390625,-17.08984375,-36.62109375,-23.4375
125.86328125,-26.3671875,-18.06640625,-20.01953125,-14.6484375
125.8671875,-25.87890625,-13.671875,-21.97265625,-10.25390625
125.87109375,-34.1796875,-17.08984375,-33.69140625,-28.80859375
125.875,-20.5078125,-13.671875,-23.4375,-28.80859375
125.87890625,-0.9765625,-9.765625,-27.34375,-16.6015625
125.8828125,-19.53125,-19.04296875,-40.0390625,-18.5546875
125.88671875,-22.4609375,-13.671875,-35.15625,-34.66796875
125.890625,-11.71875,-7.8125,-27.34375,-36.1328125
125.89453125,-18.5546875,-8.7890625,-24.4140625,-16.11328125
125.8984375,-10.25390625,-25.390625,-20.99609375,-9.27734375
125.90234375,-12.6953125,-27.34375,-18.5546875,-5.859375
125.90625,-23.92578125,-18.5546875,-9.765625,-1.46484375
125.91015625,-12.20703125,-23.4375,-1.953125,-5.37109375
125.9140625,0.48828125,-20.5078125,-4.8828125,-9.765625
125.91796875,-2.44140625,-20.5078125,-1.46484375,-12.20703125
125.921875,-13.18359375,-21.484375,-4.8828125,-28.80859375
125.92578125,-18.06640625,-22.4609375,-6.34765625,-42.96875
125.9296875,-32.71484375,-29.296875,-12.20703125,-43.45703125
125.93359375,-39.0625,-28.80859375,-18.06640625,-41.015625
125.9375,-45.41015625,-62.5,-12.20703125,-34.66796875
125.94140625,-44.43359375,-63.4765625,-4.8828125,-29.78515625
125.9453125,-42.48046875,-27.34375,-0.48828125,-35.64453125
125.94921875,-46.875,-24.90234375,-4.8828125,-32.71484375
125.953125,-41.015625,-21.484375,-17.578125,-41.50390625
125.95703125,-30.76171875,-29.296875,-19.53125,-47.8515625
125.9609375,-13.671875,-24.90234375,-11.23046875,-25.87890625
125.96484375,-21.484375,-14.16015625,-18.06640625,-10.25390625
125.96875,-24.90234375,-19.04296875,-22.4609375,-11.23046875
125.97265625,-25.87890625,-14.6484375,-12.20703125,-17.578125
125.9765625,-22.4609375,-48.828125,-8.7890625,-23.92578125
125.98046875,-21.97265625,-65.4296875,-6.8359375,-20.01953125
125.984375,-19.04296875,-20.5078125,-7.8125,-16.11328125
125.98828125,-6.34765625,-17.578125,-18.06640625,-18.06640625
125.9921875,-16.6015625,-19.04296875,-26.3671875,-20.99609375
125.99609375,-25.87890625,-11.71875,-22.4609375,-29.296875
126.0,-24.4140625,-3.41796875,-21.484375,-20.01953125
126.00390625,-16.11328125,-6.34765625,-20.5078125,-6.8359375
126.0078125,-1.46484375,-17.08984375,-9.27734375,-9.765625
126.01171875,-6.34765625,-14.6484375,-5.859375,-11.23046875
126.015625,-16.11328125,-11.23046875,-7.8125,-7.32421875
126.01953125,-21.97265625,-18.06640625,-13.671875,-7.32421875
126.0234375,-24.4140625,-22.4609375,-19.53125,-3.41796875
126.02734375,-21.97265625,-22.4609375,-18.06640625,-0.48828125
126.03125,-35.64453125,-16.6015625,-16.11328125,-29.296875
126.03515625,-42.48046875,-23.4375,-17.578125,-34.1796875
126.0390625,-32.2265625,-46.875,-20.99609375,-19.04296875
126.04296875,-26.3671875,-33.69140625,-19.04296875,-24.90234375
126.046875,-29.296875,-22.4609375,-20.99609375,-34.1796875
126.05078125,-38.57421875,-25.87890625,-19.53125,-28.3203125
126.0546875,-42.48046875,-28.3203125,-9.765625,-25.390625
126.05859375,-40.0390625,-33.69140625,-3.90625,-18.5546875
126.0625,-29.78515625,-31.25,-6.34765625,-12.6953125
126.06640625,-26.85546875,-32.2265625,-11.71875,-20.5078125
126.0703125,-29.78515625,-33.69140625,-15.13671875,-40.52734375
126.07421875,-27.34375,-32.71484375,-14.6484375,-41.50390625
126.078125,-33.203125,-56.15234375,-0.9765625,-30.76171875
126.08203125,-35.15625,-52.734375,8.30078125,-21.97265625
126.0859375,-27.34375,-30.2734375,5.37109375,-6.8359375
126.08984375,-20.01953125,-25.390625,10.7421875,-12.20703125
126.09375,-19.53125,-18.5546875,13.18359375,-15.625
126.09765625,-32.71484375,-20.99609375,5.37109375,-19.04296875
126.1015625,-26.85546875,-19.04296875,-1.46484375,-29.296875
126.10546875,-35.64453125,-20.01953125,-4.8828125,-26.3671875
126.109375,-44.921875,-16.11328125,-3.90625,-27.34375
126.11328125,-24.90234375,-15.625,-5.859375,-27.83203125
126.1171875,-32.2265625,-41.9921875,-10.7421875,-28.80859375
126.12109375,-39.0625,-43.9453125,-8.7890625,-46.875
126.125,-34.66796875,-27.83203125,-11.71875,-34.66796875
126.12890625,-41.50390625,-27.83203125,-15.625,-18.06640625
126.1328125,-38.0859375,-16.11328125,-19.04296875,-20.01953125
126.13671875,-27.34375,-39.55078125,-21.484375,-21.484375
126.140625,-34.66796875,-54.19921875,-25.390625,-51.26953125
126.14453125,-27.83203125,-14.6484375,-34.66796875,-61.03515625
126.1484375,-14.16015625,-7.32421875,-27.34375,-27.83203125
126.15234375,-33.69140625,-16.11328125,-18.5546875,-23.92578125
126.15625,-34.66796875,-21.97265625,-16.6015625,-42.96875
126.16015625,-26.3671875,-20.01953125,-11.71875,-39.55078125
126.1640625,-34.1796875,-17.578125,-2.44140625,-25.87890625
126.16796875,-37.59765625,-15.625,-7.8125,-35.15625
126.171875,-40.52734375,-8.7890625,-20.99609375,-68.359375
126.17578125,-7.8125,-36.1328125,-10.25390625,-56.640625
126.1796875,10.7421875,-58.10546875,2.9296875,-35.15625
126.18359375,-4.39453125,-29.78515625,-1.46484375,-46.875
126.1875,-20.01953125,-19.04296875,-5.859375,-40.52734375
126.19140625,-16.11328125,-14.6484375,7.32421875,-24.90234375
126.1953125,-2.44140625,-20.01953125,12.20703125,-40.0390625
126.19921875,-25.390625,-19.53125,-4.8828125,-50.29296875
126.203125,-41.015625,-10.25390625,-8.30078125,-28.80859375
126.20703125,-32.71484375,-14.16015625,-7.32421875,-14.6484375
126.2109375,-35.15625,-19.04296875,-20.99609375,-22.4609375
126.21484375,-40.52734375,-22.94921875,-18.5546875,-28.80859375
126.21875,-40.0390625,-42.48046875,-16.11328125,-25.390625
126.22265625,-31.25,-32.2265625,-23.92578125,-24.4140625
126.2265625,-35.64453125,-16.6015625,-24.4140625,-31.25
126.23046875,-33.69140625,-18.5546875,-17.578125,-24.4140625
126.234375,-34.66796875,-21.484375,-26.85546875,-31.73828125
126.23828125,-22.94921875,-22.94921875,-31.25,-37.59765625
126.2421875,-9.27734375,-19.53125,-22.94921875,-22.4609375
126.24609375,-44.921875,-18.06640625,-28.80859375,-37.59765625
126.25,-48.33984375,-11.23046875,-32.71484375,-31.73828125
126.25390625,-20.99609375,-9.27734375,-27.83203125,-18.06640625
126.2578125,-28.3203125,-20.99609375,-28.3203125,-13.671875
126.26171875,-32.71484375,-28.80859375,-31.73828125,-15.625
126.265625,-28.3203125,-23.92578125,-35.64453125,-25.390625
126.26953125,-17.08984375,-20.99609375,-30.76171875,-16.6015625
126.2734375,-22.4609375,-23.4375,-26.3671875,-24.4140625
126.27734375,-25.390625,-26.85546875,-23.4375,-25.87890625
126.28125,-29.296875,-23.4375,-20.01953125,-20.5078125
126.28515625,-31.25,-19.04296875,-20.99609375,-22.4609375
126.2890625,-40.0390625,-15.13671875,-19.04296875,-32.2265625
126.29296875,-41.9921875,-14.16015625,-13.671875,-29.78515625
126.296875,-17.08984375,-20.99609375,-6.34765625,-26.3671875
126.30078125,-14.6484375,-19.04296875,-5.37109375,-37.59765625
126.3046875,-22.94921875,-22.4609375,-5.859375,-33.203125
126.30859375,-20.99609375,-25.87890625,-5.859375,-24.90234375
126.3125,-25.87890625,-14.16015625,-4.8828125,-28.3203125
126.31640625,-28.80859375,-36.62109375,1.46484375,-38.57421875
126.3203125,-29.78515625,-56.15234375,4.8828125,-33.69140625
126.32421875,-23.92578125,-26.85546875,10.7421875,-26.3671875
126.328125,-19.53125,-20.99609375,8.7890625,-28.3203125
126.33203125,-20.99609375,-23.92578125,13.18359375,-18.06640625
126.3359375,-19.04296875,-23.92578125,11.23046875,-21.484375
126.33984375,-22.4609375,-24.4140625,2.44140625,-36.1328125
126.34375,-27.34375,-22.4609375,3.41796875,-33.203125
126.34765625,-33.203125,-19.04296875,1.46484375,-33.69140625
126.3515625,-29.78515625,-17.578125,2.9296875,-29.296875
126.35546875,-24.4140625,-37.109375,0.9765625,-19.53125
126.359375,-25.87890625,-59.08203125,-0.9765625,-24.90234375
126.36328125,-49.8046875,-35.64453125,11.71875,-26.3671875
126.3671875,-32.2265625,-24.4140625,18.5546875,-19.04296875
126.37109375,-8.30078125,-25.87890625,1.953125,-34.1796875
126.375,-15.625,-29.296875,5.859375,-30.2734375
126.37890625,-21.97265625,-36.62109375,21.484375,-25.87890625
126.3828125,-20.01953125,-25.390625,11.71875,-28.80859375
126.38671875,-16.6015625,-21.484375,-7.32421875,-36.1328125
126.390625,-27.34375,-18.06640625,-11.23046875,-40.0390625
126.39453125,-23.4375,-18.5546875,-4.39453125,-43.9453125
126.3984375,-7.8125,-28.3203125,-4.8828125,-35.64453125
126.40234375,-17.08984375,-19.53125,-7.32421875,-26.85546875
126.40625,-36.1328125,-20.01953125,-7.8125,-40.52734375
126.41015625,-24.4140625,-19.53125,0.48828125,-29.296875
126.4140625,-4.39453125,-14.16015625,3.41796875,-20.01953125
126.41796875,-17.08984375,-23.92578125,-3.41796875,-32.2265625
126.421875,-27.83203125,-19.04296875,-9.27734375,-51.7578125
126.42578125,-15.13671875,-13.671875,-10.25390625,-32.2265625
126.4296875,-1.46484375,-19.04296875,-5.859375,-14.6484375
126.43359375,-6.34765625,-13.18359375,-11.23046875,-30.76171875
126.4375,-24.90234375,-29.296875,-22.4609375,-44.43359375
126.44140625,-21.97265625,-30.2734375,-26.3671875,-47.8515625
126.4453125,-23.92578125,-12.20703125,-21.97265625,-52.24609375
126.44921875,-43.45703125,-14.6484375,-26.85546875,-62.5
126.453125,-41.50390625,-10.7421875,-32.71484375,-53.22265625
126.45703125,-32.2265625,-41.50390625,-25.390625,-39.55078125
126.4609375,-33.69140625,-56.15234375,-14.6484375,-24.90234375
126.46484375,-31.73828125,-13.18359375,-11.71875,-26.85546875
126.46875,-25.87890625,-6.34765625,-19.04296875,-41.50390625
126.47265625,-34.1796875,-6.34765625,-22.94921875,-43.45703125
126.4765625,-30.76171875,-8.7890625,-25.87890625,-58.10546875
126.48046875,-27.83203125,-13.671875,-27.34375,-49.8046875
126.484375,-51.26953125,-19.04296875,-31.73828125,-35.64453125
126.48828125,-53.7109375,-26.85546875,-33.203125,-42.96875
126.4921875,-32.71484375,-18.06640625,-26.85546875,-47.36328125
126.49609375,-42.96875,-21.97265625,-19.04296875,-41.015625
126.5,-50.29296875,-38.0859375,-14.16015625,-33.203125
126.50390625,-39.55078125,-29.296875,-22.94921875,-41.9921875
126.5078125,-46.38671875,-21.484375,-22.4609375,-45.8984375
126.51171875,-62.01171875,-18.06640625,-15.625,-36.62109375
126.515625,-47.36328125,-20.99609375,-15.625,-32.71484375
126.51953125,-35.15625,-20.99609375,-17.578125,-22.94921875
126.5234375,-34.1796875,-22.4609375,-20.5078125,-16.11328125
126.52734375,-25.390625,-21.97265625,-23.4375,-25.390625
126.53125,-27.34375,-12.20703125,-28.80859375,-24.90234375
126.53515625,-22.4609375,-19.53125,-25.87890625,-28.80859375
126.5390625,-18.06640625,-41.015625,-15.625,-29.78515625
126.54296875,-24.4140625,-33.69140625,-17.578125,-16.6015625
126.546875,-37.59765625,-24.90234375,-15.13671875,-12.6953125
126.55078125,-39.0625,-23.92578125,-9.27734375,-20.5078125
126.5546875,-30.2734375,-18.5546875,-8.7890625,-19.53125
126.55859375,-28.3203125,-20.99609375,-16.6015625,-10.25390625
126.5625,-22.4609375,-24.4140625,-24.90234375,-11.71875
126.56640625,-13.18359375,-19.04296875,-19.04296875,-10.25390625
126.5703125,-12.6953125,-12.20703125,-26.85546875,-11.23046875
126.57421875,-29.296875,-13.18359375,-30.2734375,-38.0859375
126.578125,-32.2265625,-16.11328125,-21.484375,-45.41015625
126.58203125,-26.3671875,-16.6015625,-19.53125,-29.296875
126.5859375,-16.6015625,-23.4375,-23.4375,-27.83203125
126.58984375,-17.08984375,-29.78515625,-22.4609375,-23.4375
126.59375,-24.4140625,-29.296875,-9.27734375,-8.30078125
126.59765625,-11.71875,-33.69140625,-7.8125,-6.8359375
126.6015625,-12.20703125,-28.3203125,-15.13671875,-28.3203125
126.60546875,-16.6015625,-20.01953125,-19.53125,-25.390625
126.609375,-16.11328125,-20.5078125,-26.85546875,-9.27734375
126.61328125,-29.78515625,-20.01953125,-31.73828125,-21.484375
126.6171875,-24.90234375,-14.16015625,-27.34375,-28.3203125
126.62109375,-20.01953125,-9.27734375,-29.296875,-32.71484375
126.625,-43.45703125,-13.671875,-27.83203125,-41.50390625
126.62890625,-51.26953125,-19.53125,-24.4140625,-39.0625
126.6328125,-45.8984375,-20.5078125,-22.4609375,-38.57421875
126.63671875,-36.62109375,-34.1796875,-11.71875,-27.83203125
126.640625,-12.20703125,-47.36328125,-5.859375,-21.97265625
126.64453125,-16.11328125,-32.71484375,-12.6953125,-25.390625
126.6484375,-33.69140625,-25.87890625,-20.99609375,-41.9921875
126.65234375,-35.15625,-29.78515625,-25.87890625,-61.03515625
126.65625,-30.2734375,-35.64453125,-28.80859375,-57.6171875
126.66015625,-39.0625,-34.66796875,-29.78515625,-51.26953125
126.6640625,-38.57421875,-29.78515625,-17.578125,-42.48046875
126.66796875,-32.2265625,-33.203125,-8.7890625,-49.31640625
126.671875,-50.78125,-29.78515625,-15.625,-62.5
126.67578125,-56.15234375,-36.1328125,-11.71875,-57.6171875
126.6796875,-32.71484375,-45.41015625,-3.90625,-42.96875
126.68359375,-33.203125,-26.85546875,-13.18359375,-27.34375
126.6875,-20.01953125,-23.92578125,-23.92578125,-27.83203125
126.69140625,-4.39453125,-21.484375,-25.87890625,-29.78515625
126.6953125,-12.6953125,-25.390625,-26.3671875,-20.5078125
126.69921875,-12.20703125,-33.203125,-23.92578125,-19.04296875
126.703125,-7.8125,-17.08984375,-21.484375,-24.4140625
126.70703125,-24.4140625,-16.6015625,-14.16015625,-30.2734375
126.7109375,-20.01953125,-20.5078125,-10.25390625,-29.78515625
126.71484375,-2.9296875,-18.5546875,-17.578125,-40.0390625
126.71875,-9.27734375,-23.4375,-19.04296875,-25.87890625
126.72265625,-16.11328125,-23.4375,-14.6484375,-17.578125
126.7265625,-37.59765625,-23.92578125,-21.97265625,-37.59765625
126.73046875,-52.24609375,-28.3203125,-28.80859375,-41.50390625
126.734375,-51.26953125,-25.390625,-19.53125,-39.55078125
126.73828125,-46.38671875,-51.7578125,-1.953125,-21.97265625
126.7421875,-41.015625,-60.05859375,6.34765625,-19.53125
126.74609375,-49.31640625,-40.52734375,8.30078125,-33.69140625
126.75,-61.03515625,-46.38671875,10.7421875,-34.1796875
126.75390625,-72.75390625,-52.734375,19.53125,-22.4609375
126.7578125,-73.2421875,-61.03515625,24.4140625,-11.71875
126.76171875,-83.0078125,-60.05859375,27.34375,-22.94921875
126.765625,-81.54296875,-56.640625,24.4140625,-22.94921875
126.76953125,-67.3828125,-59.5703125,7.32421875,-23.4375
126.7734375,-66.89453125,-49.31640625,17.08984375,-22.4609375
126.77734375,-63.4765625,-83.0078125,33.69140625,0.9765625
126.78125,-71.77734375,-99.609375,17.578125,0.48828125
126.78515625,-71.2890625,-63.4765625,5.37109375,-16.11328125
126.7890625,-68.359375,-58.10546875,10.7421875,-8.7890625
126.79296875,-69.3359375,-51.26953125,20.5078125,-4.39453125
126.796875,-65.4296875,-41.015625,19.04296875,-11.23046875
126.80078125,-56.15234375,-41.9921875,8.30078125,-0.48828125
126.8046875,-49.31640625,-42.48046875,7.32421875,-3.41796875
126.80859375,-55.17578125,-38.0859375,1.46484375,-7.8125
126.8125,-66.40625,-37.109375,1.46484375,-2.44140625
126.81640625,-50.78125,-54.19921875,22.4609375,-0.9765625
126.8203125,-32.2265625,-58.59375,14.6484375,-15.13671875
126.82421875,-30.2734375,-29.296875,-0.9765625,-19.53125
126.828125,-39.55078125,-33.69140625,-8.7890625,-8.30078125
126.83203125,-49.31640625,-36.62109375,-5.37109375,-6.34765625
126.8359375,-45.8984375,-31.73828125,9.27734375,-14.6484375
126.83984375,-47.36328125,-35.64453125,9.765625,-8.7890625
126.84375,-59.5703125,-27.34375,-5.859375,-9.765625
126.84765625,-51.26953125,-20.99609375,-10.7421875,-11.23046875
126.8515625,-43.45703125,-29.78515625,1.953125,-10.25390625
126.85546875,-32.2265625,-25.390625,3.41796875,-11.71875
126.859375,-26.3671875,-26.3671875,-12.20703125,-15.13671875
126.86328125,-25.390625,-29.296875,-24.4140625,-20.99609375
126.8671875,3.90625,-21.484375,-34.1796875,-10.7421875
126.87109375,26.85546875,-18.5546875,-38.57421875,-3.41796875
126.875,25.87890625,-16.6015625,-28.3203125,-7.8125
126.87890625,-2.44140625,-19.53125,-27.83203125,-12.6953125
126.8828125,-19.53125,-20.5078125,-39.55078125,-20.99609375
126.88671875,-25.390625,-29.296875,-44.43359375,-33.69140625
126.890625,-34.1796875,-23.92578125,-38.0859375,-23.92578125
126.89453125,-14.6484375,-19.04296875,-46.38671875,-2.44140625
126.8984375,-20.99609375,-29.296875,-62.98828125,-9.27734375
126.90234375,-38.0859375,-32.2265625,-68.359375,-17.08984375
126.90625,-26.3671875,-25.390625,-56.15234375,-15.13671875
126.91015625,-21.484375,-20.5078125,-36.1328125,-16.11328125
126.9140625,-30.2734375,-21.97265625,-36.1328125,-24.4140625
126.91796875,-25.390625,-48.33984375,-37.59765625,-10.7421875
126.921875,-50.29296875,-49.31640625,-46.875,-25.390625
126.92578125,-49.8046875,-16.11328125,-66.89453125,-41.50390625
126.9296875,-41.50390625,-13.18359375,-50.78125,-22.94921875
126.93359375,-40.0390625,-8.7890625,-42.96875,-19.04296875
126.9375,-22.4609375,-10.25390625,-48.33984375,-25.87890625
126.94140625,-18.5546875,-19.53125,-51.26953125,-23.4375
126.9453125,-21.484375,-25.87890625,-58.10546875,-5.859375
126.94921875,-32.71484375,-34.1796875,-51.26953125,-13.671875
126.953125,-31.73828125,-23.92578125,-46.875,-40.0390625
126.95703125,-36.1328125,-22.4609375,-46.875,-38.57421875
126.9609375,-41.50390625,-29.78515625,-52.734375,-22.4609375
126.96484375,-37.59765625,-23.4375,-61.03515625,-27.83203125
126.96875,-44.921875,-16.11328125,-74.21875,-34.1796875
126.97265625,-38.0859375,-7.32421875,-54.6875,-23.92578125
126.9765625,-15.13671875,-36.1328125,-28.3203125,-27.83203125
126.98046875,-12.20703125,-46.38671875,-31.73828125,-19.04296875
126.984375,-21.484375,-23.92578125,-36.62109375,-7.8125
126.98828125,-28.3203125,-20.99609375,-34.1796875,-24.90234375
126.9921875,-20.5078125,-17.578125,-19.04296875,-20.99609375
126.99609375,-19.04296875,-16.11328125,-21.484375,-21.484375
127.0,-43.9453125,-26.3671875,-37.59765625,-38.0859375
127.00390625,-49.8046875,-22.94921875,-35.64453125,-37.109375
127.0078125,-37.109375,-14.6484375,-46.875,-26.3671875
127.01171875,-25.390625,-12.6953125,-41.9921875,-33.69140625
127.015625,-38.0859375,-20.5078125,-33.203125,-42.96875
127.01953125,-45.8984375,-24.90234375,-42.96875,-28.3203125
127.0234375,-23.4375,-15.625,-45.41015625,-18.5546875
127.02734375,-24.90234375,-22.4609375,-37.59765625,-12.20703125
127.03125,-25.87890625,-21.97265625,-32.2265625,-19.04296875
127.03515625,-20.5078125,-20.5078125,-41.015625,-22.94921875
127.0390625,-25.390625,-22.4609375,-42.48046875,-20.01953125
127.04296875,-36.1328125,-18.5546875,-43.9453125,-16.11328125
127.046875,-40.0390625,-16.11328125,-52.734375,-18.06640625
127.05078125,-33.203125,-8.7890625,-58.10546875,-28.3203125
127.0546875,-29.78515625,-10.25390625,-68.84765625,-41.50390625
127.05859375,-16.11328125,-19.53125,-63.96484375,-42.96875
127.0625,-8.7890625,-20.5078125,-53.22265625,-22.94921875
127.06640625,-21.97265625,-21.484375,-62.01171875,-9.765625
127.0703125,-28.80859375,-23.92578125,-60.05859375,0.9765625
127.07421875,-6.34765625,-26.85546875,-47.36328125,-1.953125
127.078125,6.8359375,-28.3203125,-39.0625,-6.8359375
127.08203125,3.41796875,-20.01953125,-41.50390625,-8.30078125
127.0859375,-21.484375,-14.6484375,-50.29296875,-28.80859375
127.08984375,-31.25,-6.8359375,-47.8515625,-30.2734375
127.09375,-3.41796875,-7.32421875,-44.43359375,-20.99609375
127.09765625,-8.7890625,-12.20703125,-49.31640625,-36.1328125
127.1015625,-16.11328125,-10.7421875,-55.6640625,-41.015625
127.10546875,-20.5078125,-9.27734375,-56.640625,-42.48046875
127.109375,-19.53125,-16.6015625,-25.87890625,-26.3671875
127.11328125,4.39453125,-16.6015625,1.46484375,-6.34765625
127.1171875,0.48828125,-19.04296875,-4.39453125,7.32421875
127.12109375,-20.01953125,-24.90234375,-3.41796875,11.71875
127.125,-24.90234375,-21.484375,7.8125,-12.6953125
127.12890625,-20.99609375,-18.5546875,-6.34765625,-26.3671875
127.1328125,-38.57421875,-8.7890625,-31.73828125,-34.66796875
127.13671875,-34.1796875,-16.11328125,-22.94921875,-31.73828125
127.140625,-20.99609375,-29.78515625,-13.18359375,-30.2734375
127.14453125,-36.1328125,-29.78515625,-18.06640625,-46.875
127.1484375,-15.13671875,-32.71484375,-18.06640625,-37.59765625
127.15234375,-7.8125,-30.2734375,-5.859375,-13.18359375
127.15625,-30.2734375,-33.203125,-7.32421875,-13.18359375
127.16015625,-28.3203125,-55.17578125,-1.953125,7.8125
127.1640625,-9.765625,-62.98828125,9.765625,19.53125
127.16796875,-12.20703125,-35.64453125,-11.71875,-8.30078125
127.171875,-30.2734375,1.953125,-30.2734375,-22.4609375
127.17578125,-42.48046875,5.859375,-3.41796875,-8.30078125
127.1796875,-12.20703125,-3.41796875,10.25390625,-9.765625
127.18359375,3.41796875,-12.6953125,-26.85546875,-34.1796875
127.1875,-43.45703125,-20.99609375,-27.83203125,-46.38671875
127.19140625,-58.59375,0.0,-10.7421875,-27.34375
127.1953125,-30.76171875,-11.71875,-22.94921875,-9.765625
127.19921875,-5.37109375,-42.96875,-24.4140625,6.34765625
127.203125,-20.99609375,-21.484375,-33.69140625,-2.44140625
127.20703125,-54.19921875,-12.6953125,-33.69140625,-22.4609375
127.2109375,-58.59375,-27.83203125,-31.73828125,-15.625
127.21484375,-65.91796875,-36.62109375,-46.875,-19.04296875
127.21875,-74.21875,-34.1796875,-45.8984375,-21.97265625
127.22265625,-72.265625,-35.15625,-28.3203125,-8.7890625
127.2265625,-55.17578125,-45.8984375,-16.11328125,2.44140625
127.23046875,-50.29296875,-32.2265625,-20.5078125,12.6953125
127.234375,-44.921875,-22.4609375,-28.3203125,32.71484375
127.23828125,-62.5,-31.25,-32.2265625,30.2734375
127.2421875,-70.80078125,-25.390625,-21.97265625,25.390625
127.24609375,-48.828125,-31.73828125,-15.625,28.80859375
127.25,-67.87109375,-40.0390625,-27.34375,25.390625
127.25390625,-88.8671875,-44.921875,-31.25,18.5546875
127.2578125,-86.9140625,-56.640625,-30.2734375,21.484375
127.26171875,-72.75390625,-42.96875,-38.0859375,37.109375
127.265625,-68.359375,-27.83203125,-59.08203125,12.6953125
127.26953125,-49.8046875,-31.25,-51.7578125,9.27734375
127.2734375,-31.73828125,-23.4375,-45.8984375,27.34375
127.27734375,-23.4375,-16.11328125,-62.01171875,14.6484375
127.28125,-16.6015625,-22.4609375,-57.6171875,19.53125
127.28515625,-20.5078125,-29.296875,-51.7578125,22.94921875
127.2890625,-23.4375,-25.87890625,-45.8984375,20.01953125
127.29296875,-34.66796875,-15.625,-47.8515625,7.32421875
127.296875,-20.5078125,-3.90625,-59.5703125,-3.41796875
127.30078125,-18.5546875,2.9296875,-59.08203125,-2.44140625
127.3046875,-30.2734375,1.46484375,-63.4765625,9.27734375
127.30859375,-10.25390625,-16.6015625,-62.01171875,2.9296875
127.3125,0.48828125,-16.11328125,-62.98828125,5.859375
127.31640625,0.0,-0.9765625,-73.73046875,17.578125
127.3203125,-8.30078125,-1.46484375,-63.96484375,13.18359375
127.32421875,-32.71484375,-10.7421875,-59.08203125,10.7421875
127.328125,-28.80859375,-9.765625,-63.96484375,-2.9296875
127.33203125,-20.5078125,-3.90625,-70.3125,-12.6953125
127.3359375,-35.64453125,-14.6484375,-76.66015625,-20.99609375
127.33984375,-40.52734375,-30.76171875,-72.265625,-15.13671875
127.34375,-19.04296875,-26.3671875,-64.453125,-3.41796875
127.34765625,-13.18359375,-13.671875,-56.640625,-4.39453125
127.3515625,-35.64453125,-10.7421875,-56.15234375,-8.7890625
127.35546875,-35.64453125,-3.41796875,-49.8046875,-2.9296875
127.359375,-33.69140625,-0.9765625,-33.69140625,11.23046875
127.36328125,-18.06640625,-10.7421875,-25.87890625,9.27734375
127.3671875,-9.765625,-15.625,-36.62109375,-5.859375
127.37109375,-30.76171875,-20.5078125,-52.24609375,-9.27734375
127.375,-8.30078125,-22.94921875,-42.48046875,-13.18359375
127.37890625,-4.39453125,-18.06640625,-34.1796875,-25.87890625
127.3828125,-12.6953125,-14.6484375,-50.29296875,-19.53125
127.38671875,1.46484375,-16.6015625,-43.9453125,-1.46484375
127.390625,-1.46484375,-17.08984375,-24.90234375,5.37109375
127.39453125,-13.18359375,-26.3671875,-28.80859375,-9.765625
127.3984375,-20.5078125,-32.2265625,-29.296875,-8.30078125
127.40234375,-6.34765625,-21.484375,-23.92578125,13.671875
127.40625,-3.41796875,-13.671875,-16.11328125,13.671875
127.41015625,-1.953125,-17.578125,3.90625,9.27734375
127.4140625,-5.37109375,-16.6015625,18.5546875,11.23046875
127.41796875,-5.37109375,-12.6953125,15.13671875,11.23046875
127.421875,1.953125,-15.13671875,2.9296875,2.9296875
127.42578125,-8.7890625,-16.6015625,4.39453125,0.48828125
127.4296875,-17.578125,-19.04296875,2.9296875,2.9296875
127.43359375,-16.6015625,-25.390625,5.37109375,5.859375
127.4375,5.37109375,-30.2734375,37.59765625,6.34765625
127.44140625,14.6484375,-27.83203125,32.71484375,19.04296875
127.4453125,-8.7890625,-18.06640625,15.625,1.953125
127.44921875,-12.6953125,-9.27734375,20.99609375,-12.20703125
127.453125,-25.390625,-10.25390625,18.5546875,-10.25390625
127.45703125,-34.1796875,-17.08984375,8.30078125,-16.6015625
127.4609375,-13.18359375,-15.625,6.34765625,-25.390625
127.46484375,-16.6015625,-12.6953125,9.765625,-21.484375
127.46875,-20.99609375,-23.4375,2.9296875,-13.18359375
127.47265625,-22.4609375,-29.296875,16.6015625,-11.23046875
127.4765625,-21.97265625,-26.3671875,41.9921875,-2.44140625
127.48046875,-14.6484375,-22.94921875,41.9921875,-6.8359375
127.484375,-38.0859375,-27.83203125,25.390625,-14.16015625
127.48828125,-39.55078125,-36.1328125,4.8828125,-14.6484375
127.4921875,-11.71875,-22.94921875,-22.94921875,-16.6015625
127.49609375,-5.37109375,-10.25390625,-14.6484375,-8.7890625
127.5,-8.7890625,-15.13671875,16.11328125,-14.6484375
127.50390625,-11.23046875,-19.04296875,15.625,-12.6953125
127.5078125,-25.390625,-26.3671875,12.6953125,-23.92578125
127.51171875,-29.78515625,-31.25,18.5546875,-26.3671875
127.515625,-32.2265625,-27.34375,27.34375,-3.41796875
127.51953125,-53.7109375,-38.0859375,28.80859375,-10.25390625
127.5234375,-80.56640625,-48.33984375,10.7421875,-15.13671875
127.52734375,-87.890625,-43.45703125,17.578125,-30.76171875
127.53125,-66.89453125,-44.43359375,26.3671875,-41.9921875
127.53515625,-58.10546875,-42.96875,15.13671875,-32.2265625
127.5390625,-61.5234375,-22.4609375,14.6484375,-44.921875
127.54296875,-87.40234375,-29.296875,16.6015625,-82.03125
127.546875,-114.74609375,-45.8984375,17.08984375,-99.12109375
127.55078125,-122.0703125,-44.43359375,25.87890625,-87.890625
127.5546875,-114.74609375,-41.015625,24.4140625,-106.4453125
127.55859375,-132.32421875,-38.0859375,37.59765625,-128.41796875
127.5625,-166.9921875,-28.80859375,50.78125,-136.71875
127.56640625,-185.05859375,-17.578125,41.50390625,-153.80859375
127.5703125,-166.50390625,-19.04296875,20.01953125,-177.24609375
127.57421875,-155.76171875,-15.13671875,-8.30078125,-198.2421875
127.578125,-148.92578125,-5.859375,-13.671875,-194.3359375
127.58203125,-111.81640625,-3.90625,-18.5546875,-189.453125
127.5859375,-98.14453125,0.48828125,-48.33984375,-202.63671875
127.58984375,-92.28515625,4.8828125,-55.17578125,-171.38671875
127.59375,-90.33203125,2.9296875,-54.19921875,-146.484375
127.59765625,-68.84765625,4.8828125,-62.01171875,-114.2578125
127.6015625,-63.4765625,3.90625,-46.38671875,-98.14453125
127.60546875,-61.5234375,4.8828125,-29.296875,-107.91015625
127.609375,-32.71484375,7.8125,-35.64453125,-95.21484375
127.61328125,-24.90234375,11.71875,-46.38671875,-83.0078125
127.6171875,-12.6953125,15.13671875,-35.15625,-65.91796875
127.62109375,-28.3203125,14.16015625,-49.8046875,-72.75390625
127.625,-18.5546875,8.30078125,-52.24609375,-61.5234375
127.62890625,21.97265625,-3.41796875,-35.15625,-25.390625
127.6328125,25.390625,-3.90625,-48.33984375,-21.484375
127.63671875,27.83203125,-0.48828125,-64.94140625,-16.6015625
127.640625,20.5078125,-6.34765625,-47.8515625,-11.71875
127.64453125,23.92578125,-0.48828125,-44.43359375,4.8828125
127.6484375,38.0859375,-5.37109375,-50.78125,19.04296875
127.65234375,17.578125,-17.578125,-38.0859375,3.90625
127.65625,12.20703125,-3.90625,-31.25,-0.9765625
127.66015625,27.83203125,-6.8359375,-32.2265625,4.39453125
127.6640625,18.06640625,-11.23046875,-32.71484375,0.0
127.66796875,17.08984375,1.46484375,-38.57421875,-10.7421875
127.671875,20.99609375,1.953125,-40.0390625,0.48828125
127.67578125,17.08984375,4.39453125,-26.3671875,5.37109375
127.6796875,12.6953125,7.32421875,-20.01953125,0.0
127.68359375,-4.8828125,-12.6953125,-20.01953125,-14.16015625
127.6875,-1.46484375,-20.01953125,-17.08984375,-6.34765625
127.69140625,35.64453125,-15.625,-25.87890625,18.06640625
127.6953125,30.76171875,-8.7890625,-39.0625,8.7890625
127.69921875,18.5546875,-7.32421875,-29.296875,7.32421875
127.703125,35.64453125,-10.25390625,-20.01953125,4.8828125
127.70703125,20.5078125,-9.27734375,-23.92578125,13.18359375
127.7109375,1.46484375,-21.97265625,-21.97265625,23.4375
127.71484375,0.9765625,-22.4609375,-24.90234375,-2.9296875
127.71875,19.04296875,-3.90625,-29.296875,-2.44140625
127.72265625,23.4375,-16.6015625,-31.73828125,11.23046875
127.7265625,15.625,-20.5078125,-32.71484375,13.671875
127.73046875,0.0,-12.6953125,-21.97265625,-0.9765625
127.734375,5.859375,-16.11328125,-12.20703125,-12.6953125
127.73828125,25.87890625,-9.27734375,-11.23046875,22.4609375
127.7421875,26.3671875,-23.92578125,-8.7890625,33.69140625
127.74609375,14.16015625,-27.83203125,-18.5546875,15.625
127.75,9.27734375,-13.18359375,-11.71875,2.9296875
127.75390625,29.78515625,-26.3671875,9.27734375,20.99609375
127.7578125,35.15625,0.48828125,2.9296875,33.203125
127.76171875,26.3671875,4.39453125,-8.7890625,20.99609375
127.765625,20.99609375,-24.90234375,-2.9296875,14.16015625
127.76953125,22.4609375,-19.04296875,4.39453125,15.13671875
127.7734375,22.94921875,-29.296875,-2.44140625,32.71484375
127.77734375,11.23046875,-27.83203125,-12.6953125,38.57421875
127.78125,6.8359375,-16.11328125,-18.06640625,23.4375
127.78515625,7.8125,-18.06640625,-15.13671875,21.97265625
127.7890625,11.23046875,-17.08984375,-3.90625,24.4140625
127.79296875,4.8828125,-17.578125,-9.27734375,15.625
127.796875,-1.953125,-16.6015625,0.0,11.23046875
127.80078125,4.39453125,-19.53125,-1.953125,0.0
127.8046875,3.41796875,-24.90234375,-23.4375,-12.20703125
127.80859375,-4.39453125,-24.4140625,-20.01953125,-4.8828125
127.8125,-6.8359375,-24.90234375,-22.94921875,-9.27734375
127.81640625,3.90625,-10.25390625,-19.53125,-4.8828125
127.8203125,0.0,1.46484375,-16.11328125,-20.01953125
127.82421875,-4.8828125,-16.6015625,-10.7421875,-11.71875
127.828125,-15.625,-16.11328125,-12.6953125,12.6953125
127.83203125,4.39453125,-10.7421875,1.46484375,7.8125
127.8359375,11.23046875,-12.20703125,-5.859375,8.30078125
127.83984375,-9.765625,-10.25390625,-27.83203125,-5.37109375
127.84375,-16.6015625,-15.625,-12.20703125,-23.4375
127.84765625,-6.34765625,-24.4140625,0.0,-14.16015625
127.8515625,-9.765625,-21.97265625,-2.44140625,0.0
127.85546875,-24.4140625,-19.04296875,-0.48828125,-9.765625
127.859375,-22.4609375,-16.11328125,-3.41796875,-8.30078125
127.86328125,-13.671875,-19.53125,-4.8828125,6.8359375
127.8671875,-18.06640625,-24.4140625,-9.27734375,8.30078125
127.87109375,-17.08984375,-18.06640625,-8.30078125,4.39453125
127.875,-20.99609375,-23.92578125,-5.859375,-1.953125
127.87890625,-35.15625,-21.484375,-14.16015625,-9.765625
127.8828125,-28.3203125,-11.23046875,-10.7421875,0.9765625
127.88671875,-20.5078125,-17.578125,-2.9296875,12.20703125
127.890625,-22.4609375,-25.390625,-1.953125,-1.46484375
127.89453125,-22.94921875,-21.484375,5.859375,-12.6953125
127.8984375,-41.015625,0.0,0.0,-23.92578125
127.90234375,-39.55078125,-9.765625,-0.9765625,-13.18359375
127.90625,-25.87890625,-41.015625,-10.7421875,-4.8828125
127.91015625,-20.01953125,-41.50390625,-18.5546875,-24.90234375
127.9140625,-28.80859375,-32.2265625,-12.20703125,-22.4609375
127.91796875,-32.71484375,-26.3671875,1.46484375,-16.6015625
127.921875,-20.5078125,-19.04296875,5.37109375,-8.7890625
127.92578125,-23.4375,-13.18359375,-5.37109375,-8.7890625
127.9296875,-23.92578125,-22.4609375,2.44140625,-18.5546875
127.93359375,-22.4609375,-33.203125,17.578125,-6.8359375
