Timestamp,TP9,AF7,AF8,TP10
4.00390625,-16.6015625,-9.27734375,-15.13671875,-24.90234375
4.0078125,-23.4375,-1.953125,-28.80859375,-9.27734375
4.01171875,-28.3203125,0.0,-28.3203125,-20.99609375
4.015625,-24.90234375,5.37109375,-20.99609375,-30.2734375
4.01953125,-32.71484375,-4.39453125,-27.34375,-28.3203125
4.0234375,-24.4140625,-10.7421875,-33.69140625,-26.3671875
4.02734375,-0.9765625,-8.7890625,-29.296875,-11.71875
4.03125,0.0,-18.5546875,-22.4609375,-12.20703125
4.03515625,-4.39453125,-24.90234375,-14.16015625,-10.25390625
4.0390625,-15.625,-23.92578125,-11.71875,2.9296875
4.04296875,-0.48828125,-10.7421875,-30.2734375,0.48828125
4.046875,5.37109375,4.8828125,-37.59765625,-16.6015625
4.05078125,-19.53125,4.39453125,-27.83203125,-22.4609375
4.0546875,-23.92578125,-2.9296875,-28.3203125,-38.0859375
4.05859375,-17.578125,-6.34765625,-30.76171875,-23.92578125
4.0625,-19.04296875,-2.9296875,-27.34375,-1.46484375
4.06640625,-21.97265625,-13.671875,-30.76171875,-29.296875
4.0703125,-5.37109375,-24.4140625,-40.0390625,-22.94921875
4.07421875,12.20703125,-31.73828125,-39.55078125,-16.6015625
4.078125,11.71875,-32.71484375,-45.41015625,15.625
4.08203125,-15.13671875,-18.06640625,-45.41015625,5.37109375
4.0859375,-37.109375,-8.30078125,-25.390625,-61.03515625
4.08984375,-36.1328125,-4.39453125,-6.8359375,-41.50390625
4.09375,-34.66796875,-5.859375,-9.765625,-39.55078125
4.09765625,-29.78515625,-9.765625,-20.99609375,-20.5078125
4.1015625,-28.3203125,-14.6484375,-25.390625,-18.5546875
4.10546875,-26.3671875,-22.4609375,-34.1796875,-57.12890625
4.109375,-16.11328125,-26.3671875,-41.9921875,-27.83203125
4.11328125,3.90625,-27.34375,-42.48046875,8.7890625
4.1171875,-6.34765625,-30.2734375,-31.73828125,-9.27734375
4.12109375,-47.8515625,-30.76171875,-22.94921875,-35.15625
4.125,-51.7578125,-22.4609375,-32.2265625,-5.859375
4.12890625,-16.6015625,-15.625,-52.734375,-7.8125
4.1328125,-17.578125,-8.7890625,-36.62109375,-46.875
4.13671875,-31.73828125,-8.30078125,-12.6953125,-39.55078125
4.140625,-25.390625,-16.6015625,-8.30078125,-33.69140625
4.14453125,-22.4609375,-22.4609375,-16.11328125,-6.34765625
4.1484375,-20.99609375,-20.5078125,-25.87890625,10.25390625
4.15234375,-10.25390625,-13.671875,-21.484375,-9.27734375
4.15625,-3.41796875,-14.16015625,-18.06640625,-24.4140625
4.16015625,-9.27734375,-29.296875,-16.6015625,-25.87890625
4.1640625,-0.9765625,-39.0625,-14.6484375,-21.484375
4.16796875,-10.7421875,-34.66796875,-16.6015625,-23.4375
4.171875,-7.8125,-29.296875,-27.83203125,-8.30078125
4.17578125,11.23046875,-18.5546875,-35.64453125,12.6953125
4.1796875,-4.8828125,-14.6484375,-21.484375,0.9765625
4.18359375,-15.13671875,-20.99609375,-10.25390625,-17.578125
4.1875,-25.390625,-22.4609375,-11.23046875,-21.97265625
4.19140625,-22.4609375,-27.83203125,-3.90625,-38.57421875
4.1953125,-11.23046875,-35.15625,-2.9296875,-21.97265625
4.19921875,-26.3671875,-32.2265625,-14.16015625,0.0
4.203125,-36.62109375,-22.94921875,-9.765625,-8.7890625
4.20703125,-13.18359375,-27.83203125,-12.6953125,-2.44140625
4.2109375,-20.5078125,-26.3671875,-26.3671875,-10.7421875
4.21484375,-25.87890625,-17.578125,-28.80859375,-23.92578125
4.21875,-9.765625,-23.4375,-16.6015625,-16.6015625
4.22265625,-18.06640625,-20.99609375,-18.5546875,-25.87890625
4.2265625,-33.203125,-16.6015625,-19.53125,0.0
4.23046875,-26.3671875,-27.34375,-6.34765625,1.953125
4.234375,-20.01953125,-30.76171875,-13.671875,-65.4296875
4.23828125,-32.2265625,-21.97265625,-13.671875,-36.1328125
4.2421875,-28.80859375,-21.484375,-8.7890625,-17.08984375
4.24609375,0.48828125,-25.87890625,-27.34375,-6.8359375
4.25,14.6484375,-27.83203125,-42.96875,10.25390625
4.25390625,-5.37109375,-33.203125,-19.53125,-3.90625
4.2578125,-22.4609375,-28.3203125,-3.90625,-8.30078125
4.26171875,-28.80859375,-20.99609375,-22.4609375,-6.8359375
4.265625,-40.0390625,-18.06640625,-38.0859375,-13.18359375
4.26953125,-27.83203125,-23.92578125,-28.3203125,-0.9765625
4.2734375,6.34765625,-38.0859375,-19.04296875,-10.7421875
4.27734375,12.20703125,-29.78515625,-16.6015625,-21.97265625
4.28125,1.953125,-20.01953125,-14.6484375,-25.87890625
4.28515625,-5.859375,-18.06640625,-19.04296875,-48.33984375
4.2890625,-9.765625,-18.06640625,-25.87890625,-32.2265625
4.29296875,-20.01953125,-21.484375,-27.83203125,-26.85546875
4.296875,-31.25,-33.69140625,-23.92578125,-37.59765625
4.30078125,-14.6484375,-33.69140625,-39.0625,-15.13671875
4.3046875,-18.5546875,-21.97265625,-47.36328125,9.765625
4.30859375,-22.94921875,-21.484375,-33.203125,-14.6484375
4.3125,-0.9765625,-16.6015625,-39.0625,-29.78515625
4.31640625,-4.8828125,-15.625,-41.9921875,-40.0390625
4.3203125,-10.7421875,-19.04296875,-29.78515625,-33.203125
4.32421875,-20.01953125,-25.390625,-25.390625,-23.4375
4.328125,-11.23046875,-29.296875,-29.296875,-41.9921875
4.33203125,6.8359375,-29.296875,-25.390625,-35.64453125
4.3359375,2.44140625,-41.015625,-23.4375,-9.27734375
4.33984375,0.48828125,-52.734375,-22.4609375,-12.6953125
4.34375,-14.6484375,-32.71484375,-27.83203125,-2.9296875
4.34765625,-29.296875,-7.32421875,-40.52734375,-10.7421875
4.3515625,-41.50390625,-1.46484375,-41.015625,-11.23046875
4.35546875,-23.4375,0.0,-40.52734375,2.9296875
4.359375,1.953125,-9.765625,-46.38671875,-21.484375
4.36328125,-1.46484375,-14.16015625,-43.9453125,-16.11328125
4.3671875,-2.44140625,-12.6953125,-33.69140625,-2.9296875
4.37109375,8.30078125,-25.390625,-20.99609375,-7.32421875
4.375,0.48828125,-31.73828125,-13.671875,-29.296875
4.37890625,-1.46484375,-31.25,-8.7890625,-20.99609375
4.3828125,-14.16015625,-28.80859375,-37.109375,-7.32421875
4.38671875,-29.78515625,-19.04296875,-51.26953125,-28.80859375
4.390625,-25.87890625,-15.625,-27.83203125,-34.1796875
4.39453125,-4.39453125,-19.53125,-14.6484375,0.0
4.3984375,0.48828125,-16.6015625,-16.6015625,-7.8125
4.40234375,-22.4609375,-18.06640625,-25.390625,-51.26953125
4.40625,-19.04296875,-24.90234375,-23.4375,-50.29296875
4.41015625,-14.6484375,-15.625,-36.62109375,-7.32421875
4.4140625,-15.625,-6.34765625,-53.22265625,10.25390625
4.41796875,-27.83203125,-20.99609375,-39.55078125,-33.69140625
4.421875,-22.94921875,-38.57421875,-25.87890625,-42.48046875
4.42578125,-21.97265625,-42.96875,-27.34375,-36.1328125
4.4296875,-36.1328125,-34.66796875,-23.4375,-68.84765625
4.43359375,-34.1796875,-24.4140625,-24.4140625,-56.15234375
4.4375,-21.484375,-21.484375,-30.76171875,-38.0859375
4.44140625,-9.765625,-25.390625,-33.203125,-17.578125
4.4453125,-13.18359375,-26.85546875,-30.76171875,-11.23046875
4.44921875,-11.23046875,-18.5546875,-32.2265625,-27.83203125
4.453125,-14.16015625,-17.08984375,-35.15625,-24.4140625
4.45703125,-2.9296875,-35.15625,-30.76171875,-7.8125
4.4609375,-2.9296875,-41.50390625,-24.4140625,-1.953125
4.46484375,-23.4375,-24.90234375,-25.87890625,-29.78515625
4.46875,-30.76171875,-23.92578125,-29.78515625,-28.80859375
4.47265625,-39.0625,-30.2734375,-27.34375,-13.18359375
4.4765625,-29.296875,-17.578125,-37.109375,-9.765625
4.48046875,-21.484375,-4.39453125,-45.8984375,-25.390625
4.484375,-23.4375,-2.44140625,-26.85546875,-30.2734375
4.48828125,-36.62109375,-16.6015625,-16.6015625,-20.01953125
4.4921875,-37.59765625,-23.92578125,-20.5078125,-14.6484375
4.49609375,-6.34765625,-19.53125,-33.203125,-31.25
4.5,8.7890625,-23.4375,-35.64453125,-31.73828125
4.50390625,-14.6484375,-41.50390625,-10.25390625,-17.08984375
4.5078125,-42.48046875,-46.875,-12.20703125,-18.5546875
4.51171875,-38.0859375,-41.50390625,-27.83203125,-40.52734375
4.515625,-34.66796875,-39.55078125,-30.2734375,-25.390625
4.51953125,-44.921875,-24.90234375,-33.203125,-26.3671875
4.5234375,-53.7109375,-35.64453125,-35.15625,-52.24609375
4.52734375,-21.97265625,-54.19921875,-17.578125,-26.3671875
4.53125,2.9296875,-44.43359375,-7.8125,-14.6484375
4.53515625,-24.4140625,-27.34375,-14.6484375,-34.66796875
4.5390625,-46.38671875,-14.16015625,-25.390625,-26.85546875
4.54296875,-36.62109375,-12.6953125,-26.3671875,-17.08984375
4.546875,-21.97265625,-11.23046875,-32.71484375,-14.16015625
4.55078125,-7.8125,-20.99609375,-42.48046875,-8.7890625
4.5546875,-5.859375,-21.97265625,-34.66796875,3.41796875
4.55859375,2.9296875,-12.20703125,-27.34375,7.8125
4.5625,1.46484375,-15.625,-19.04296875,-22.4609375
4.56640625,-13.671875,-23.92578125,-17.578125,-57.12890625
4.5703125,-11.71875,-22.4609375,-14.16015625,-35.64453125
4.57421875,-16.11328125,-24.90234375,-14.6484375,-0.48828125
4.578125,-14.6484375,-36.62109375,-17.08984375,-0.48828125
4.58203125,-14.16015625,-41.015625,-21.97265625,-7.32421875
4.5859375,-7.32421875,-35.15625,-54.19921875,-11.71875
4.58984375,-4.8828125,-17.578125,-51.26953125,-17.578125
4.59375,-16.11328125,-13.671875,-19.53125,-16.11328125
4.59765625,-18.06640625,-17.08984375,-0.48828125,3.41796875
4.6015625,-8.7890625,-27.83203125,-3.41796875,10.25390625
4.60546875,-11.23046875,-25.87890625,-20.5078125,-22.94921875
4.609375,-2.9296875,-17.08984375,-4.8828125,-18.06640625
4.61328125,5.37109375,-27.34375,7.8125,-0.9765625
4.6171875,-1.953125,-24.4140625,-4.8828125,-25.390625
4.62109375,-21.97265625,-15.625,-6.34765625,-24.4140625
4.625,-22.94921875,-15.625,1.953125,-6.8359375
4.62890625,-21.97265625,-18.06640625,-4.8828125,12.20703125
4.6328125,-26.3671875,-28.80859375,-14.6484375,9.27734375
4.63671875,-20.01953125,-30.2734375,-23.4375,-16.6015625
4.640625,-30.76171875,-11.71875,-25.87890625,-16.11328125
4.64453125,-20.01953125,-7.32421875,-3.41796875,-34.1796875
4.6484375,-4.8828125,-10.25390625,5.859375,-28.3203125
4.65234375,-7.32421875,0.48828125,-6.34765625,0.9765625
4.65625,-13.18359375,-9.765625,-4.39453125,7.32421875
4.66015625,9.765625,-19.53125,-29.78515625,-7.8125
4.6640625,12.6953125,-9.765625,-59.5703125,-22.94921875
4.66796875,-21.484375,-7.8125,-32.2265625,-25.390625
4.671875,-20.5078125,-12.6953125,-1.953125,-30.2734375
4.67578125,-28.80859375,-15.13671875,6.8359375,-40.0390625
4.6796875,-50.78125,-13.18359375,0.0,-41.9921875
4.68359375,-56.15234375,-16.11328125,-7.8125,-57.6171875
4.6875,-82.03125,-20.99609375,-8.7890625,-77.1484375
4.69140625,-93.75,-22.94921875,-14.6484375,-70.3125
4.6953125,-84.47265625,-22.94921875,-6.34765625,-64.453125
4.69921875,-88.37890625,-25.87890625,4.8828125,-87.890625
4.703125,-108.88671875,-31.73828125,-8.7890625,-114.2578125
4.70703125,-118.65234375,-34.1796875,-10.7421875,-127.44140625
4.7109375,-118.65234375,-33.69140625,6.34765625,-116.69921875
4.71484375,-123.53515625,-34.66796875,10.7421875,-122.55859375
4.71875,-123.046875,-33.69140625,14.6484375,-129.39453125
4.72265625,-129.8828125,-29.78515625,17.578125,-119.140625
4.7265625,-159.1796875,-32.71484375,19.04296875,-140.625
4.73046875,-150.87890625,-36.1328125,19.04296875,-159.1796875
4.734375,-134.765625,-36.62109375,14.6484375,-135.7421875
4.73828125,-146.484375,-32.71484375,11.23046875,-119.140625
4.7421875,-133.7890625,-41.9921875,13.18359375,-121.58203125
4.74609375,-118.1640625,-52.24609375,7.32421875,-125.48828125
4.75,-129.39453125,-32.2265625,-12.6953125,-139.6484375
4.75390625,-125.48828125,-15.625,-20.5078125,-144.04296875
4.7578125,-121.58203125,-20.5078125,-12.20703125,-122.55859375
4.76171875,-110.3515625,-26.3671875,-10.7421875,-126.46484375
4.765625,-112.3046875,-29.296875,-11.23046875,-127.9296875
4.76953125,-99.12109375,-26.3671875,-4.8828125,-110.83984375
4.7734375,-69.82421875,-20.99609375,-10.25390625,-100.09765625
4.77734375,-39.55078125,-22.4609375,-31.25,-61.03515625
4.78125,-28.3203125,-37.109375,-29.78515625,-62.01171875
4.78515625,-30.2734375,-46.38671875,-12.6953125,-62.5
4.7890625,-30.2734375,-32.71484375,-7.8125,-34.66796875
4.79296875,-33.69140625,-15.625,3.41796875,-33.69140625
4.796875,-45.41015625,-22.4609375,5.37109375,-34.1796875
4.80078125,-40.52734375,-24.90234375,-7.8125,-41.50390625
4.8046875,-11.23046875,-15.13671875,0.0,-33.203125
4.80859375,-2.44140625,-11.71875,1.46484375,-32.71484375
4.8125,-4.39453125,-9.27734375,-5.37109375,-14.6484375
4.81640625,-0.9765625,-8.30078125,-31.25,19.04296875
4.8203125,12.20703125,-4.8828125,-29.78515625,15.625
4.82421875,19.04296875,-4.39453125,4.8828125,9.765625
4.828125,23.4375,-6.8359375,2.44140625,14.16015625
4.83203125,21.97265625,-22.94921875,-7.32421875,29.78515625
4.8359375,30.2734375,-33.203125,9.27734375,49.31640625
4.83984375,49.8046875,-17.578125,-4.39453125,27.83203125
4.84375,44.921875,-5.37109375,-39.0625,12.20703125
4.84765625,27.83203125,-5.37109375,-30.76171875,19.04296875
4.8515625,14.6484375,-2.44140625,-15.625,10.7421875
4.85546875,10.7421875,-12.20703125,-25.390625,-3.41796875
4.859375,14.16015625,-17.08984375,-27.34375,13.671875
4.86328125,31.73828125,-25.390625,-23.4375,42.48046875
4.8671875,23.92578125,-33.69140625,-38.57421875,54.6875
4.87109375,17.08984375,-23.4375,-28.80859375,42.96875
4.875,32.71484375,-20.99609375,-12.20703125,11.23046875
4.87890625,17.08984375,-22.4609375,-19.04296875,-8.30078125
4.8828125,27.34375,-9.27734375,-23.92578125,22.4609375
4.88671875,36.1328125,-4.8828125,-16.11328125,22.94921875
4.890625,21.97265625,-17.578125,-16.11328125,18.5546875
4.89453125,36.1328125,-12.6953125,-19.04296875,37.59765625
4.8984375,47.8515625,-10.25390625,-20.99609375,37.109375
4.90234375,32.71484375,-11.23046875,-31.25,36.62109375
4.90625,28.80859375,-11.71875,-32.2265625,30.2734375
4.91015625,49.8046875,-27.34375,-11.71875,48.828125
4.9140625,70.3125,-24.4140625,-16.11328125,62.5
4.91796875,41.50390625,-12.6953125,-15.625,24.4140625
4.921875,18.06640625,-9.765625,4.8828125,9.765625
4.92578125,8.7890625,-8.7890625,3.41796875,6.8359375
4.9296875,2.9296875,-8.7890625,-1.953125,8.30078125
4.93359375,19.04296875,-13.671875,-12.20703125,29.296875
4.9375,21.484375,-24.90234375,-9.27734375,14.16015625
4.94140625,32.71484375,-29.78515625,-3.90625,25.390625
4.9453125,29.78515625,-29.296875,-15.13671875,55.6640625
4.94921875,17.578125,-20.5078125,-18.06640625,20.99609375
4.953125,11.71875,-9.765625,-20.01953125,5.859375
4.95703125,13.18359375,-9.27734375,-20.5078125,9.765625
4.9609375,17.08984375,-13.18359375,-16.11328125,9.765625
4.96484375,17.08984375,-17.08984375,-13.18359375,22.94921875
4.96875,7.32421875,-20.99609375,-11.71875,-0.48828125
4.97265625,8.7890625,-15.625,-33.203125,6.34765625
4.9765625,9.765625,-14.6484375,-48.828125,30.76171875
4.98046875,3.41796875,-30.2734375,-29.78515625,-10.7421875
4.984375,-0.9765625,-44.921875,-10.7421875,-21.484375
4.98828125,-13.671875,-37.59765625,-6.34765625,-16.6015625
4.9921875,-10.7421875,-20.01953125,-22.94921875,-12.20703125
4.99609375,-14.6484375,-10.25390625,-33.203125,-3.41796875
5.0,-24.90234375,-10.25390625,-26.85546875,-23.4375
5.00390625,-10.7421875,-6.34765625,-22.94921875,-11.23046875
5.0078125,-12.6953125,-4.8828125,-25.87890625,6.8359375
5.01171875,7.32421875,-15.625,-27.83203125,6.34765625
5.015625,19.04296875,-29.78515625,-31.73828125,5.37109375
5.01953125,5.859375,-34.66796875,-49.31640625,-9.27734375
5.0234375,20.5078125,-29.296875,-46.38671875,-4.8828125
5.02734375,31.73828125,-38.0859375,-31.25,11.23046875
5.03125,23.4375,-30.76171875,-35.64453125,18.5546875
5.03515625,16.6015625,-1.953125,-41.50390625,21.97265625
5.0390625,-5.859375,0.0,-19.53125,0.9765625
5.04296875,-8.7890625,-0.9765625,-2.9296875,-4.39453125
5.046875,6.8359375,1.46484375,-13.671875,-14.16015625
5.05078125,6.34765625,-2.9296875,-20.5078125,-13.18359375
5.0546875,10.7421875,-6.34765625,-12.6953125,12.6953125
5.05859375,12.20703125,-10.25390625,-17.08984375,9.27734375
5.0625,8.7890625,-12.20703125,-20.99609375,4.8828125
5.06640625,18.06640625,-12.6953125,-17.578125,5.37109375
5.0703125,20.01953125,-26.3671875,-20.99609375,20.5078125
5.07421875,23.92578125,-32.2265625,-21.484375,50.78125
5.078125,-0.9765625,-27.34375,-25.390625,8.7890625
5.08203125,-32.2265625,-19.04296875,-27.34375,-24.4140625
5.0859375,-29.78515625,-3.41796875,-22.4609375,-24.4140625
5.08984375,-14.16015625,0.0,-37.59765625,-28.80859375
5.09375,-9.765625,-3.41796875,-37.109375,-16.6015625
5.09765625,-4.39453125,-1.46484375,-13.671875,4.39453125
5.1015625,9.765625,-11.23046875,-17.08984375,3.41796875
5.10546875,3.41796875,-17.08984375,-20.99609375,-3.41796875
5.109375,3.41796875,-15.13671875,-16.11328125,-5.37109375
5.11328125,19.04296875,-22.94921875,-24.4140625,-6.8359375
5.1171875,24.4140625,-28.3203125,-22.4609375,-13.18359375
5.12109375,21.484375,-13.18359375,-11.71875,-11.71875
5.125,7.8125,-1.953125,-21.484375,5.859375
5.12890625,-12.6953125,-14.6484375,-15.13671875,6.34765625
5.1328125,-28.3203125,-16.6015625,-6.34765625,-13.18359375
5.13671875,-19.04296875,-10.25390625,-14.6484375,-29.78515625
5.140625,9.765625,-24.4140625,-19.53125,-26.85546875
5.14453125,-7.32421875,-29.78515625,-25.87890625,-19.53125
5.1484375,-31.73828125,-28.3203125,-26.3671875,-32.71484375
5.15234375,-12.20703125,-30.2734375,-31.73828125,-36.1328125
5.15625,-15.13671875,-25.87890625,-41.50390625,-33.69140625
5.16015625,-28.3203125,-15.13671875,-34.66796875,-24.90234375
5.1640625,-34.66796875,-2.9296875,-24.90234375,-23.92578125
5.16796875,-30.2734375,-1.953125,-20.99609375,-30.2734375
5.171875,-15.625,-14.16015625,-18.06640625,14.16015625
5.17578125,1.46484375,-27.83203125,-14.16015625,11.71875
5.1796875,-8.7890625,-23.4375,-27.34375,-50.78125
5.18359375,-33.203125,-9.27734375,-38.0859375,-48.33984375
5.1875,-41.50390625,-11.71875,-37.109375,-24.90234375
5.19140625,-30.2734375,-15.625,-39.0625,-21.97265625
5.1953125,-20.5078125,-21.484375,-41.50390625,-20.5078125
5.19921875,-28.3203125,-26.85546875,-39.55078125,-26.85546875
5.203125,-19.04296875,-21.97265625,-35.64453125,-27.34375
5.20703125,11.71875,-30.76171875,-31.73828125,-11.71875
5.2109375,4.8828125,-39.0625,-26.3671875,-2.9296875
5.21484375,-22.4609375,-29.78515625,-19.04296875,-0.9765625
5.21875,-16.11328125,-14.6484375,-20.01953125,-4.39453125
5.22265625,-17.08984375,-8.30078125,-26.3671875,-3.90625
5.2265625,-21.484375,-6.8359375,-41.50390625,3.41796875
5.23046875,-17.08984375,-20.5078125,-41.015625,-2.9296875
5.234375,-27.34375,-31.73828125,-28.80859375,-41.50390625
5.23828125,-23.4375,-23.4375,-23.4375,-62.01171875
5.2421875,-26.3671875,-28.80859375,-17.08984375,-49.8046875
5.24609375,-22.94921875,-41.015625,-18.5546875,-9.765625
5.25,-5.859375,-42.48046875,-19.04296875,-12.6953125
5.25390625,0.9765625,-36.62109375,-20.5078125,-37.59765625
5.2578125,-2.9296875,-29.78515625,-30.76171875,-18.5546875
5.26171875,-39.55078125,-26.85546875,-30.2734375,-23.4375
5.265625,-44.43359375,-20.99609375,-23.92578125,-21.97265625
5.26953125,-33.69140625,-14.6484375,-34.1796875,-4.8828125
5.2734375,-29.296875,-18.06640625,-39.55078125,-2.9296875
5.27734375,-17.08984375,-31.25,-37.109375,-27.83203125
5.28125,-20.5078125,-33.69140625,-36.62109375,-46.875
5.28515625,-30.76171875,-28.80859375,-31.73828125,-47.36328125
5.2890625,-30.76171875,-38.0859375,-22.4609375,-48.828125
5.29296875,-14.6484375,-32.71484375,-8.30078125,-36.1328125
5.296875,-21.97265625,-16.11328125,-16.6015625,-24.4140625
5.30078125,-32.2265625,-17.08984375,-24.90234375,-25.87890625
5.3046875,-29.78515625,-31.73828125,-20.01953125,-10.7421875
5.30859375,-15.13671875,-36.1328125,-35.15625,-15.13671875
5.3125,-2.9296875,-25.390625,-43.9453125,-7.32421875
5.31640625,-15.13671875,-21.484375,-21.484375,17.08984375
5.3203125,-35.15625,-11.23046875,-27.34375,-10.7421875
5.32421875,-39.0625,-6.34765625,-34.66796875,-20.99609375
5.328125,-26.3671875,-17.578125,-10.7421875,-34.1796875
5.33203125,-15.13671875,-25.87890625,-2.9296875,-40.0390625
5.3359375,-10.7421875,-14.16015625,-13.671875,-25.87890625
5.33984375,4.39453125,-8.30078125,-13.18359375,-25.87890625
5.34375,14.6484375,-13.18359375,-4.39453125,-23.92578125
5.34765625,9.27734375,-2.44140625,-18.06640625,-16.11328125
5.3515625,3.90625,-2.9296875,-24.4140625,-14.16015625
5.35546875,-20.01953125,-18.06640625,-25.87890625,-12.6953125
5.359375,-31.25,-24.90234375,-24.4140625,-7.8125
5.36328125,-14.16015625,-18.06640625,-18.06640625,-14.16015625
5.3671875,1.46484375,-21.97265625,-18.06640625,-15.625
5.37109375,-12.6953125,-16.11328125,-19.04296875,-5.859375
5.375,-40.0390625,-1.46484375,-31.25,-24.90234375
5.37890625,-26.85546875,-3.90625,-33.69140625,-48.33984375
5.3828125,-21.484375,-1.953125,-27.83203125,-40.52734375
5.38671875,-13.671875,-6.34765625,-24.90234375,-42.96875
5.390625,0.9765625,-15.625,-26.3671875,-29.78515625
5.39453125,5.37109375,-15.625,-32.71484375,-20.99609375
5.3984375,0.48828125,-16.6015625,-29.296875,-15.13671875
5.40234375,-6.8359375,-16.6015625,-26.85546875,-5.859375
5.40625,5.859375,-20.01953125,-34.66796875,1.46484375
5.41015625,17.578125,-26.3671875,-27.34375,12.6953125
5.4140625,4.8828125,-14.16015625,-11.71875,12.20703125
5.41796875,-0.48828125,-1.953125,-17.08984375,-10.7421875
5.421875,-8.7890625,0.48828125,-16.11328125,-16.6015625
5.42578125,-9.765625,0.48828125,-10.7421875,-2.44140625
5.4296875,-7.32421875,-6.34765625,-7.8125,-32.2265625
5.43359375,-15.625,-25.390625,-15.625,-50.29296875
5.4375,-11.23046875,-24.4140625,-20.5078125,-31.25
5.44140625,-23.4375,-19.04296875,-13.18359375,-34.1796875
5.4453125,-24.90234375,-20.99609375,-5.859375,-14.6484375
5.44921875,-27.34375,-9.765625,-6.34765625,-21.97265625
5.453125,-18.5546875,-0.48828125,-24.4140625,-33.69140625
5.45703125,-7.8125,-5.37109375,-31.25,-34.66796875
5.4609375,-30.76171875,-26.85546875,-18.06640625,-43.45703125
5.46484375,-35.15625,-44.921875,-16.11328125,-38.57421875
5.46875,-26.3671875,-34.1796875,-13.18359375,-27.83203125
5.47265625,-22.4609375,-16.6015625,-5.859375,-23.4375
5.4765625,-3.41796875,-27.83203125,-1.46484375,-20.01953125
5.48046875,4.39453125,-45.41015625,-6.34765625,-25.390625
5.484375,-5.859375,-26.3671875,-19.53125,-21.97265625
5.48828125,-15.625,-11.23046875,-17.08984375,-17.578125
5.4921875,-13.671875,-7.32421875,-2.9296875,-34.1796875
5.49609375,-3.41796875,-0.9765625,-0.9765625,-20.01953125
5.5,-4.8828125,-4.39453125,3.41796875,-11.23046875
5.50390625,-9.765625,-11.23046875,15.13671875,1.953125
5.5078125,-4.39453125,-17.08984375,12.6953125,1.953125
5.51171875,4.39453125,-16.11328125,4.39453125,-18.06640625
5.515625,-8.7890625,-20.01953125,1.46484375,-25.87890625
5.51953125,-20.99609375,-23.92578125,0.0,-19.53125
5.5234375,-1.46484375,-18.06640625,2.44140625,-1.46484375
5.52734375,8.7890625,-15.13671875,-2.44140625,-8.7890625
5.53125,0.0,-10.7421875,3.90625,-12.20703125
5.53515625,-2.44140625,-7.8125,4.8828125,-23.92578125
5.5390625,-9.765625,-15.13671875,-10.25390625,-34.1796875
5.54296875,-18.5546875,-21.97265625,-8.7890625,-27.83203125
5.546875,-36.1328125,-29.296875,-0.9765625,-29.296875
5.55078125,-38.57421875,-19.04296875,-3.90625,-21.484375
5.5546875,-37.59765625,-12.20703125,-7.8125,-18.06640625
5.55859375,-41.50390625,-22.94921875,-5.37109375,-48.33984375
5.5625,-37.59765625,-26.3671875,-4.39453125,-62.5
5.56640625,-51.26953125,-26.3671875,-17.08984375,-74.21875
5.5703125,-89.84375,-25.87890625,-14.16015625,-104.4921875
5.57421875,-106.4453125,-19.04296875,2.44140625,-104.98046875
5.578125,-107.91015625,-20.99609375,9.27734375,-109.375
5.58203125,-115.72265625,-41.015625,14.6484375,-108.3984375
5.5859375,-110.83984375,-43.45703125,7.8125,-112.79296875
5.58984375,-125.0,-37.59765625,-8.30078125,-124.51171875
5.59375,-138.671875,-38.57421875,-6.8359375,-141.11328125
5.59765625,-137.6953125,-35.15625,0.48828125,-132.8125
5.6015625,-132.32421875,-27.34375,6.34765625,-124.0234375
5.60546875,-129.39453125,-18.06640625,0.48828125,-125.0
5.609375,-133.7890625,-23.92578125,-10.25390625,-115.72265625
5.61328125,-122.0703125,-32.71484375,-0.48828125,-92.28515625
5.6171875,-120.1171875,-27.83203125,8.30078125,-93.26171875
5.62109375,-117.67578125,-26.85546875,-5.859375,-131.8359375
5.625,-117.67578125,-34.66796875,-16.6015625,-111.328125
5.62890625,-96.19140625,-36.62109375,-19.53125,-80.078125
5.6328125,-76.66015625,-33.69140625,-14.6484375,-80.078125
5.63671875,-83.49609375,-32.71484375,-1.953125,-71.2890625
5.640625,-58.59375,-36.62109375,3.41796875,-43.45703125
5.64453125,-16.11328125,-35.64453125,4.39453125,-1.46484375
5.6484375,-10.7421875,-24.4140625,-13.18359375,-25.87890625
5.65234375,-7.8125,-21.484375,-32.2265625,-53.7109375
5.65625,16.11328125,-31.73828125,-28.3203125,-3.90625
5.66015625,0.0,-32.71484375,-23.4375,13.671875
5.6640625,2.44140625,-34.66796875,-32.2265625,-5.859375
5.66796875,9.27734375,-30.2734375,-47.36328125,5.37109375
5.671875,11.23046875,-15.13671875,-41.50390625,25.87890625
5.67578125,23.4375,-22.4609375,-20.99609375,16.11328125
5.6796875,12.6953125,-29.296875,-3.41796875,-12.6953125
5.68359375,-3.90625,-29.78515625,-10.25390625,-9.765625
5.6875,8.7890625,-24.4140625,-35.15625,-3.41796875
5.69140625,16.11328125,-19.53125,-27.34375,21.484375
5.6953125,14.16015625,-21.484375,-7.32421875,37.109375
5.69921875,17.578125,-16.6015625,-9.27734375,3.41796875
5.703125,12.6953125,-22.94921875,-8.7890625,16.11328125
5.70703125,16.6015625,-9.27734375,-23.92578125,25.390625
5.7109375,21.484375,-6.34765625,-29.78515625,22.94921875
5.71484375,21.97265625,-30.2734375,-17.08984375,23.4375
5.71875,9.27734375,-23.4375,-15.13671875,9.765625
5.72265625,19.53125,-12.6953125,-9.765625,0.48828125
5.7265625,22.4609375,-14.16015625,-23.4375,21.97265625
5.73046875,20.01953125,-24.4140625,-30.76171875,7.32421875
5.734375,22.94921875,-30.2734375,-31.25,3.41796875
5.73828125,35.15625,-24.4140625,-44.921875,40.52734375
5.7421875,33.69140625,-24.4140625,-40.52734375,40.0390625
5.74609375,24.90234375,-28.3203125,-18.06640625,16.6015625
5.75,16.11328125,-23.4375,-7.8125,21.484375
5.75390625,26.3671875,-27.83203125,-8.7890625,28.80859375
5.7578125,41.50390625,-40.52734375,-16.6015625,16.11328125
5.76171875,21.97265625,-41.9921875,-25.390625,26.85546875
5.765625,19.04296875,-30.76171875,-32.2265625,40.0390625
5.76953125,27.83203125,-15.625,-32.71484375,19.04296875
5.7734375,33.203125,-7.32421875,-19.04296875,24.90234375
5.77734375,28.3203125,-13.18359375,-15.625,24.4140625
5.78125,19.53125,-11.71875,-26.85546875,11.71875
5.78515625,8.7890625,-6.34765625,-45.41015625,38.0859375
5.7890625,0.48828125,-18.06640625,-46.875,31.25
5.79296875,-0.9765625,-32.2265625,-24.90234375,-1.46484375
5.796875,9.765625,-33.69140625,-27.34375,6.34765625
5.80078125,7.32421875,-32.2265625,-38.0859375,-7.8125
5.8046875,0.9765625,-30.76171875,-33.203125,-4.8828125
5.80859375,12.6953125,-23.92578125,-21.97265625,21.97265625
5.8125,6.8359375,-15.625,-7.8125,14.16015625
5.81640625,12.20703125,-17.08984375,-5.859375,4.39453125
5.8203125,18.5546875,-30.2734375,-2.44140625,9.27734375
5.82421875,16.11328125,-32.2265625,-5.859375,28.80859375
5.828125,12.20703125,-22.4609375,-22.94921875,41.015625
5.83203125,0.0,-14.16015625,-14.6484375,8.7890625
5.8359375,-10.25390625,-11.71875,-11.71875,-12.6953125
5.83984375,-2.9296875,-11.71875,-18.5546875,-3.41796875
5.84375,16.6015625,-11.23046875,-11.71875,1.46484375
5.84765625,25.87890625,-17.08984375,-10.25390625,14.16015625
5.8515625,15.625,-33.203125,-9.765625,8.30078125
5.85546875,2.9296875,-36.62109375,-8.7890625,9.27734375
5.859375,5.37109375,-28.3203125,-11.23046875,2.9296875
5.86328125,4.39453125,-21.484375,-10.25390625,-1.46484375
5.8671875,-3.90625,-10.25390625,-8.7890625,-19.53125
5.87109375,-13.18359375,-10.25390625,-16.11328125,-17.08984375
5.875,-0.48828125,-19.04296875,-22.94921875,1.953125
5.87890625,18.06640625,-15.13671875,-22.94921875,9.27734375
5.8828125,8.30078125,-15.625,-24.4140625,18.06640625
5.88671875,0.9765625,-35.15625,-5.859375,-5.859375
5.890625,1.46484375,-43.9453125,3.90625,-13.18359375
5.89453125,0.9765625,-36.1328125,3.90625,-2.9296875
5.8984375,-2.9296875,-33.203125,-2.44140625,-7.8125
5.90234375,-9.27734375,-27.34375,-15.625,-24.90234375
5.90625,-4.39453125,-13.671875,-11.71875,-10.25390625
5.91015625,-15.13671875,-11.71875,-16.11328125,-0.9765625
5.9140625,-18.5546875,-10.25390625,-15.13671875,-23.4375
5.91796875,-21.484375,-11.71875,-7.32421875,-25.87890625
5.921875,-29.296875,-14.6484375,-2.44140625,-13.671875
5.92578125,0.9765625,-11.23046875,-2.44140625,8.7890625
5.9296875,3.90625,-12.6953125,-17.578125,0.9765625
5.93359375,-14.16015625,-19.04296875,-22.94921875,-16.6015625
5.9375,-10.7421875,-27.34375,-25.390625,-1.46484375
5.94140625,-2.9296875,-26.3671875,-26.3671875,5.859375
5.9453125,9.765625,-25.390625,-20.01953125,10.7421875
5.94921875,-7.32421875,-20.99609375,-21.97265625,-6.34765625
5.953125,-20.99609375,-21.484375,-28.3203125,-39.0625
5.95703125,-3.41796875,-30.76171875,-32.2265625,-16.11328125
5.9609375,5.37109375,-25.390625,-30.76171875,7.32421875
5.96484375,3.41796875,-18.06640625,-28.80859375,5.859375
5.96875,1.953125,-17.578125,-25.390625,11.23046875
5.97265625,-12.6953125,-20.5078125,-24.90234375,-7.32421875
5.9765625,-11.23046875,-25.390625,-34.66796875,-24.4140625
5.98046875,-6.34765625,-25.87890625,-35.15625,-23.4375
5.984375,-20.99609375,-17.578125,-50.29296875,-9.765625
5.98828125,-23.4375,-12.6953125,-62.5,-15.625
5.9921875,-10.7421875,-13.18359375,-28.3203125,-31.25
5.99609375,-9.27734375,-16.11328125,-10.7421875,-22.4609375
6.0,-21.97265625,-25.87890625,-13.18359375,-32.2265625
6.00390625,0.9765625,-27.83203125,-14.6484375,-16.6015625
6.0078125,0.9765625,-31.25,-23.92578125,25.390625
6.01171875,-22.4609375,-36.62109375,-37.59765625,32.2265625
6.015625,-17.08984375,-25.87890625,-40.0390625,-22.94921875
6.01953125,-23.4375,-23.4375,-32.71484375,-45.41015625
6.0234375,-34.1796875,-27.83203125,-24.90234375,-29.296875
6.02734375,-13.18359375,-34.66796875,-26.85546875,-31.73828125
6.03125,6.34765625,-34.1796875,-28.80859375,-33.203125
6.03515625,-24.90234375,-22.94921875,-30.76171875,-21.97265625
6.0390625,-33.203125,-11.23046875,-36.62109375,-14.16015625
6.04296875,-20.5078125,-12.20703125,-34.1796875,-3.90625
6.046875,-13.18359375,-16.11328125,-28.80859375,-9.765625
6.05078125,-12.20703125,-16.6015625,-28.3203125,-15.625
6.0546875,-12.6953125,-19.04296875,-46.875,-29.78515625
6.05859375,-2.44140625,-23.4375,-55.17578125,-21.484375
6.0625,5.859375,-22.94921875,-29.78515625,-15.625
6.06640625,-14.6484375,-20.5078125,-19.53125,-39.0625
6.0703125,-26.85546875,-24.4140625,-27.34375,-30.76171875
6.07421875,-19.53125,-33.69140625,-30.76171875,-26.3671875
6.078125,-27.34375,-36.62109375,-30.76171875,-23.4375
6.08203125,-18.5546875,-28.80859375,-29.296875,-27.34375
6.0859375,-16.11328125,-24.4140625,-24.90234375,-29.78515625
6.08984375,-32.71484375,-29.296875,-33.203125,-18.06640625
6.09375,-30.76171875,-30.76171875,-33.203125,-11.23046875
6.09765625,-17.08984375,-26.3671875,-31.73828125,-22.94921875
6.1015625,-11.71875,-22.94921875,-39.0625,-27.83203125
6.10546875,-31.25,-18.5546875,-40.0390625,-8.7890625
6.109375,-30.76171875,-22.4609375,-41.015625,-4.8828125
6.11328125,-10.25390625,-29.296875,-28.80859375,-16.11328125
6.1171875,-9.765625,-30.2734375,-19.04296875,-17.578125
6.12109375,-21.97265625,-30.76171875,-24.4140625,-24.90234375
6.125,-19.04296875,-20.5078125,-22.4609375,-18.5546875
6.12890625,-17.578125,-15.625,-21.97265625,-14.16015625
6.1328125,-18.5546875,-27.83203125,-20.99609375,-10.7421875
6.13671875,-5.859375,-28.3203125,-18.5546875,-0.9765625
6.140625,-5.37109375,-24.90234375,-27.83203125,3.90625
6.14453125,-0.9765625,-24.4140625,-35.64453125,-8.30078125
6.1484375,-2.9296875,-24.90234375,-42.48046875,-15.13671875
6.15234375,-13.671875,-25.87890625,-37.59765625,-19.53125
6.15625,-17.578125,-20.5078125,-19.04296875,-25.390625
6.16015625,-20.01953125,-12.20703125,-28.80859375,-13.671875
6.1640625,-20.01953125,-14.16015625,-36.1328125,-17.578125
6.16796875,-34.1796875,-31.25,-14.16015625,-29.296875
6.171875,-40.52734375,-34.1796875,-11.71875,-41.015625
6.17578125,-24.90234375,-30.76171875,-11.23046875,-33.203125
6.1796875,-1.953125,-32.2265625,-11.71875,-25.390625
6.18359375,-3.41796875,-31.73828125,-17.578125,-43.45703125
6.1875,-25.390625,-24.4140625,-14.6484375,-40.52734375
6.19140625,-24.4140625,-15.13671875,-18.5546875,-25.87890625
6.1953125,-24.4140625,-13.671875,-20.99609375,-24.4140625
6.19921875,-25.390625,-12.6953125,-19.53125,-29.78515625
6.203125,-11.23046875,-15.13671875,-17.578125,-17.08984375
6.20703125,-3.41796875,-13.671875,-15.13671875,-7.8125
6.2109375,-10.25390625,-8.7890625,-12.20703125,-20.99609375
6.21484375,-16.11328125,-17.578125,-19.53125,-7.32421875
6.21875,-21.484375,-26.85546875,-25.87890625,12.6953125
6.22265625,-12.6953125,-28.80859375,-8.30078125,-5.859375
6.2265625,-23.4375,-24.90234375,0.48828125,-35.64453125
6.23046875,-28.80859375,-22.4609375,-6.8359375,-36.62109375
6.234375,-12.20703125,-30.76171875,-9.765625,-32.2265625
6.23828125,-5.37109375,-41.50390625,-17.578125,-14.16015625
6.2421875,16.6015625,-35.15625,-23.92578125,-6.8359375
6.24609375,12.6953125,-11.23046875,-17.578125,-25.390625
6.25,-25.87890625,-10.25390625,-12.6953125,-11.23046875
6.25390625,-32.2265625,-15.625,-9.765625,-13.18359375
6.2578125,-30.76171875,-14.6484375,-11.23046875,-39.0625
6.26171875,-17.08984375,-30.76171875,-17.578125,-37.59765625
6.265625,-16.6015625,-36.1328125,-30.2734375,-23.4375
6.26953125,-30.2734375,-16.11328125,-27.83203125,-22.94921875
6.2734375,-43.45703125,-10.7421875,-16.11328125,-34.66796875
6.27734375,-38.57421875,-26.85546875,-26.85546875,-46.38671875
6.28125,-5.37109375,-23.92578125,-16.11328125,-16.6015625
6.28515625,2.44140625,-12.6953125,-1.953125,5.859375
6.2890625,-4.8828125,-10.25390625,-7.32421875,-30.2734375
6.29296875,-14.6484375,-12.6953125,-12.6953125,-25.87890625
6.296875,-20.99609375,-14.6484375,-1.46484375,-11.23046875
6.30078125,-32.71484375,-23.4375,-0.9765625,-37.59765625
6.3046875,-33.203125,-27.83203125,-7.8125,-20.5078125
6.30859375,-5.37109375,-23.92578125,-1.953125,-12.6953125
6.3125,-8.7890625,-24.90234375,-12.6953125,-27.34375
6.31640625,-41.50390625,-27.83203125,-23.4375,-28.80859375
6.3203125,-24.90234375,-27.34375,-18.5546875,-40.0390625
6.32421875,-6.34765625,-25.87890625,-24.90234375,-22.94921875
6.328125,-3.90625,-25.390625,-21.97265625,-3.90625
6.33203125,0.9765625,-28.3203125,-17.08984375,-7.32421875
6.3359375,-12.20703125,-32.2265625,-27.83203125,-2.44140625
6.33984375,-15.625,-37.59765625,-26.85546875,1.953125
6.34375,-20.01953125,-40.52734375,-27.83203125,-6.8359375
6.34765625,-14.6484375,-29.296875,-18.5546875,-23.4375
6.3515625,-10.25390625,-15.13671875,-2.9296875,-28.3203125
6.35546875,-16.6015625,-9.27734375,0.48828125,-29.296875
6.359375,-4.39453125,-9.27734375,0.0,-20.99609375
6.36328125,1.46484375,-15.625,-17.578125,-4.8828125
6.3671875,0.9765625,-22.94921875,-34.1796875,-28.80859375
6.37109375,3.90625,-30.76171875,-11.23046875,8.30078125
6.375,-17.08984375,-34.66796875,9.765625,45.41015625
6.37890625,-21.97265625,-23.4375,1.46484375,-18.06640625
6.3828125,-10.7421875,-12.6953125,-4.39453125,-44.43359375
6.38671875,-5.37109375,-18.5546875,-8.7890625,-22.94921875
6.390625,1.953125,-23.4375,-10.7421875,-16.11328125
6.39453125,7.8125,-24.90234375,-5.37109375,4.39453125
6.3984375,-3.41796875,-28.3203125,-8.30078125,-8.30078125
6.40234375,-6.34765625,-35.15625,-16.11328125,-31.25
6.40625,-7.8125,-32.2265625,-26.3671875,-31.73828125
6.41015625,-22.4609375,-20.5078125,-28.3203125,-33.203125
6.4140625,-17.08984375,-12.6953125,-35.15625,-13.671875
6.41796875,-18.06640625,-16.11328125,-37.59765625,-15.625
6.421875,-26.85546875,-30.76171875,-19.53125,-25.87890625
6.42578125,-22.4609375,-43.45703125,-18.5546875,-27.34375
6.4296875,-7.8125,-35.64453125,-21.484375,-26.3671875
6.43359375,-7.8125,-29.78515625,-15.625,-20.5078125
6.4375,-19.04296875,-30.2734375,-11.71875,-20.5078125
6.44140625,-12.20703125,-24.90234375,-10.25390625,-20.99609375
6.4453125,-14.16015625,-21.484375,-9.765625,1.953125
6.44921875,-5.859375,-22.4609375,-6.34765625,3.41796875
6.453125,-10.7421875,-20.01953125,-9.27734375,-27.83203125
6.45703125,-21.97265625,-12.6953125,-14.6484375,-27.34375
6.4609375,-21.97265625,-16.11328125,-26.85546875,-20.99609375
6.46484375,-31.25,-23.4375,-36.62109375,-26.3671875
6.46875,-30.76171875,-22.94921875,-34.66796875,-26.3671875
6.47265625,-21.484375,-20.5078125,-33.69140625,-46.38671875
6.4765625,-20.01953125,-21.484375,-31.73828125,-39.0625
6.48046875,-21.97265625,-19.53125,-26.3671875,-15.13671875
6.484375,-27.83203125,-20.5078125,-19.53125,-29.78515625
6.48828125,-15.13671875,-17.578125,-22.94921875,-15.13671875
6.4921875,-1.953125,-21.484375,-32.2265625,3.41796875
6.49609375,-20.99609375,-40.52734375,-10.25390625,-16.6015625
6.5,-41.50390625,-32.71484375,-12.20703125,-8.30078125
6.50390625,-32.71484375,-23.4375,-30.2734375,-0.9765625
6.5078125,-14.16015625,-30.76171875,-24.90234375,-17.08984375
6.51171875,-22.94921875,-30.2734375,-16.11328125,-25.87890625
6.515625,-26.3671875,-34.1796875,-7.32421875,-16.6015625
6.51953125,-22.4609375,-40.0390625,2.44140625,-19.04296875
6.5234375,-28.80859375,-26.85546875,10.7421875,-23.92578125
6.52734375,-40.52734375,-16.11328125,-5.859375,-34.1796875
6.53125,-43.9453125,-10.25390625,-14.16015625,-48.33984375
6.53515625,-33.69140625,-10.7421875,-10.7421875,-21.484375
6.5390625,-34.1796875,-25.87890625,-15.13671875,-1.46484375
6.54296875,-24.90234375,-27.83203125,-26.3671875,-7.8125
6.546875,-10.7421875,-33.69140625,-40.52734375,-24.90234375
6.55078125,-18.06640625,-32.2265625,-37.59765625,-44.921875
6.5546875,-30.2734375,-20.99609375,-23.92578125,-25.390625
6.55859375,-25.390625,-28.3203125,-17.578125,5.37109375
6.5625,-7.8125,-27.83203125,-34.1796875,2.9296875
6.56640625,-11.23046875,-14.16015625,-37.109375,-11.23046875
6.5703125,-33.203125,-11.71875,-9.27734375,-14.6484375
6.57421875,-26.3671875,-15.13671875,4.8828125,-22.4609375
6.578125,-7.8125,-24.90234375,0.48828125,-10.25390625
6.58203125,-5.37109375,-41.50390625,-3.90625,-15.625
6.5859375,-11.23046875,-40.0390625,-9.27734375,-29.296875
6.58984375,-24.90234375,-21.97265625,-21.484375,-14.6484375
6.59375,-35.15625,-19.04296875,-20.5078125,2.9296875
6.59765625,-25.87890625,-13.18359375,-8.7890625,-8.30078125
6.6015625,-13.671875,-6.8359375,-6.8359375,-26.85546875
6.60546875,-10.25390625,-12.20703125,-10.25390625,-17.08984375
6.609375,10.7421875,-8.30078125,-15.13671875,5.859375
6.61328125,9.27734375,-17.08984375,-18.5546875,4.8828125
6.6171875,-8.7890625,-30.2734375,-4.8828125,-3.90625
6.62109375,-13.671875,-33.69140625,-2.44140625,-5.859375
6.625,-21.484375,-23.4375,-9.27734375,-28.3203125
6.62890625,-27.83203125,-23.92578125,-12.6953125,-35.15625
6.6328125,-16.11328125,-27.83203125,-9.27734375,-23.4375
6.63671875,-8.30078125,-25.87890625,-2.9296875,-18.5546875
6.640625,-4.39453125,-26.3671875,-3.90625,-30.2734375
6.64453125,-11.71875,-20.99609375,-4.8828125,-10.25390625
6.6484375,-19.53125,-23.92578125,-8.7890625,-5.37109375
6.65234375,-10.7421875,-27.34375,-21.97265625,-30.2734375
6.65625,-12.6953125,-28.80859375,-24.90234375,-12.20703125
6.66015625,-23.92578125,-32.2265625,-25.390625,-9.27734375
6.6640625,-24.90234375,-29.296875,-38.0859375,-13.671875
6.66796875,-21.484375,-21.484375,-33.203125,-12.20703125
6.671875,-14.16015625,-22.4609375,-17.578125,-19.53125
6.67578125,-6.8359375,-20.5078125,-25.390625,-21.484375
6.6796875,-11.71875,-16.6015625,-36.1328125,-23.4375
6.68359375,-15.13671875,-20.5078125,-19.04296875,-6.8359375
6.6875,-16.11328125,-26.85546875,-11.23046875,-18.06640625
6.69140625,5.859375,-24.4140625,-24.90234375,-28.3203125
6.6953125,19.04296875,-12.6953125,-32.71484375,-7.8125
6.69921875,-13.18359375,-15.625,-16.6015625,-31.73828125
6.703125,-32.71484375,-22.94921875,-5.859375,-29.78515625
6.70703125,-50.29296875,-19.04296875,-7.8125,10.7421875
6.7109375,-43.9453125,-11.71875,-20.5078125,-4.39453125
6.71484375,-22.4609375,-8.30078125,-27.83203125,-36.62109375
6.71875,-17.08984375,-13.671875,-18.06640625,-31.73828125
6.72265625,-13.18359375,-18.5546875,-16.6015625,-30.2734375
6.7265625,0.48828125,-22.94921875,-10.25390625,-21.97265625
6.73046875,15.13671875,-30.76171875,-31.73828125,-21.484375
6.734375,0.0,-14.6484375,-36.1328125,-23.92578125
6.73828125,-26.3671875,0.0,-16.6015625,-30.2734375
6.7421875,-32.2265625,0.9765625,-34.1796875,-38.57421875
6.74609375,-13.671875,-1.46484375,-33.203125,-22.4609375
6.75,-12.20703125,-15.625,-13.671875,-20.01953125
6.75390625,-21.97265625,-24.4140625,0.48828125,-32.2265625
6.7578125,-4.8828125,-35.64453125,-2.9296875,-24.4140625
6.76171875,15.13671875,-42.96875,-12.6953125,0.48828125
6.765625,-11.23046875,-31.73828125,-12.20703125,-3.90625
6.76953125,-49.8046875,-19.04296875,-16.6015625,-20.99609375
6.7734375,-39.55078125,-21.97265625,-17.08984375,-23.92578125
6.77734375,-15.13671875,-28.80859375,-21.97265625,-30.76171875
6.78125,-12.6953125,-30.76171875,-43.9453125,-28.80859375
6.78515625,-16.6015625,-31.25,-42.96875,-9.765625
6.7890625,-24.4140625,-34.66796875,-11.71875,-24.4140625
6.79296875,-32.2265625,-28.3203125,-3.90625,-50.29296875
6.796875,-26.3671875,-24.90234375,-34.1796875,-41.50390625
6.80078125,-18.5546875,-29.296875,-25.390625,-22.4609375
6.8046875,-15.625,-21.97265625,9.765625,-22.94921875
6.80859375,-4.8828125,-17.578125,0.0,-16.6015625
6.8125,-14.6484375,-20.01953125,-14.16015625,-21.97265625
6.81640625,-31.73828125,-19.04296875,-18.5546875,-44.43359375
6.8203125,-32.71484375,-21.97265625,-14.6484375,-56.640625
6.82421875,-21.484375,-30.76171875,-6.34765625,-45.41015625
6.828125,-8.30078125,-34.1796875,-3.41796875,-7.8125
6.83203125,-14.16015625,-24.90234375,-4.39453125,-9.27734375
6.8359375,-23.4375,-18.5546875,-18.5546875,-41.9921875
6.83984375,-8.30078125,-10.7421875,-41.50390625,-15.13671875
6.84375,17.578125,-7.8125,-40.0390625,1.953125
6.84765625,9.27734375,-22.94921875,-13.18359375,-18.06640625
6.8515625,-6.34765625,-34.1796875,-2.9296875,-21.484375
6.85546875,4.8828125,-26.85546875,-9.27734375,-23.4375
6.859375,12.6953125,-24.90234375,-17.578125,-17.08984375
6.86328125,6.34765625,-37.59765625,-22.94921875,9.765625
6.8671875,-15.625,-33.203125,-25.87890625,-23.4375
6.87109375,-21.97265625,-17.08984375,-16.6015625,-49.31640625
6.875,-18.06640625,-19.04296875,-8.30078125,-30.76171875
6.87890625,-10.7421875,-21.97265625,-15.13671875,-27.34375
6.8828125,-7.32421875,-17.578125,-22.4609375,-27.83203125
6.88671875,-10.7421875,-15.625,-14.6484375,-29.78515625
6.890625,0.0,-14.16015625,-20.5078125,-26.3671875
6.89453125,0.0,-20.01953125,-25.390625,-22.94921875
6.8984375,-9.765625,-26.85546875,-12.20703125,-14.6484375
6.90234375,-15.625,-22.4609375,-9.27734375,-15.625
6.90625,-15.13671875,-11.71875,-30.2734375,-20.99609375
6.91015625,-18.5546875,-8.7890625,-33.203125,-8.7890625
6.9140625,-24.90234375,-14.16015625,-6.34765625,-28.3203125
6.91796875,-14.6484375,-19.53125,-3.41796875,-26.3671875
6.921875,6.8359375,-24.90234375,-11.23046875,-7.32421875
6.92578125,6.34765625,-28.3203125,-10.25390625,-27.34375
6.9296875,-14.16015625,-32.2265625,-20.5078125,-28.3203125
6.93359375,-17.578125,-26.3671875,-21.484375,-6.8359375
6.9375,-22.94921875,-22.4609375,-14.6484375,-27.83203125
6.94140625,-20.99609375,-20.99609375,-17.578125,-26.3671875
6.9453125,-5.37109375,-14.16015625,-14.6484375,-13.18359375
6.94921875,-13.18359375,-14.16015625,-17.08984375,-25.87890625
6.953125,-20.99609375,-20.5078125,-14.16015625,-25.87890625
6.95703125,-8.7890625,-16.6015625,-7.8125,-11.71875
6.9609375,-10.25390625,-15.625,-14.6484375,-15.625
6.96484375,-15.13671875,-24.90234375,-15.625,-28.80859375
6.96875,-15.13671875,-28.3203125,-10.7421875,-6.8359375
6.97265625,-18.06640625,-19.04296875,-15.625,8.30078125
6.9765625,-12.6953125,-16.11328125,-25.87890625,-10.25390625
6.98046875,-16.6015625,-28.80859375,-10.25390625,-20.99609375
6.984375,-20.99609375,-23.92578125,-10.25390625,-8.7890625
6.98828125,-17.08984375,-16.11328125,-26.85546875,-28.3203125
6.9921875,-13.18359375,-20.5078125,-15.625,-27.83203125
6.99609375,-21.484375,-17.578125,-18.06640625,-21.484375
7.0,-22.4609375,-17.578125,-24.90234375,-29.78515625
7.00390625,-20.5078125,-20.99609375,-14.16015625,-36.62109375
7.0078125,-11.23046875,-26.85546875,-13.671875,-31.25
7.01171875,16.6015625,-25.87890625,-22.4609375,-9.765625
7.015625,0.9765625,-19.04296875,-25.87890625,-10.25390625
7.01953125,-28.3203125,-17.08984375,-7.8125,-23.92578125
7.0234375,-12.20703125,-7.8125,4.39453125,-3.90625
7.02734375,-12.6953125,-8.30078125,-1.953125,3.41796875
7.03125,-22.4609375,-29.296875,0.0,-2.9296875
7.03515625,-17.08984375,-41.50390625,-0.48828125,-5.859375
7.0390625,-27.34375,-29.78515625,-10.25390625,-24.4140625
7.04296875,-28.3203125,-24.4140625,-11.71875,-28.80859375
7.046875,-17.578125,-16.6015625,-11.23046875,-16.6015625
7.05078125,-26.3671875,-8.30078125,-16.6015625,-19.04296875
7.0546875,-19.53125,-14.16015625,-20.5078125,-28.3203125
7.05859375,-27.34375,-23.92578125,-19.53125,-38.57421875
7.0625,-25.390625,-24.90234375,-17.578125,-29.296875
7.06640625,-24.90234375,-18.5546875,-31.25,-24.90234375
7.0703125,-44.43359375,-18.5546875,-31.73828125,-36.62109375
7.07421875,-35.15625,-17.578125,-36.1328125,-39.0625
7.078125,-16.11328125,-23.92578125,-51.26953125,-34.1796875
7.08203125,-15.625,-33.203125,-15.13671875,-25.390625
7.0859375,-22.94921875,-33.203125,1.953125,-32.2265625
7.08984375,-11.71875,-26.3671875,-8.7890625,-20.5078125
7.09375,-14.16015625,-17.08984375,-10.25390625,-17.578125
7.09765625,-33.203125,-19.04296875,-15.13671875,-50.78125
7.1015625,-31.73828125,-19.53125,-19.04296875,-48.828125
7.10546875,-32.2265625,-20.5078125,-21.97265625,-20.01953125
7.109375,-33.69140625,-20.99609375,-20.01953125,-23.92578125
7.11328125,-7.32421875,-24.4140625,-20.99609375,-48.33984375
7.1171875,-2.44140625,-26.3671875,-21.97265625,-20.99609375
7.12109375,-25.390625,-29.78515625,-20.99609375,7.32421875
7.125,-18.06640625,-37.59765625,-19.04296875,-4.39453125
7.12890625,-5.37109375,-30.76171875,-12.6953125,0.0
7.1328125,-17.578125,-14.6484375,-21.484375,-5.859375
7.13671875,-17.578125,-9.765625,-22.94921875,-15.625
7.140625,1.953125,-13.18359375,-26.3671875,-15.13671875
7.14453125,2.44140625,-18.06640625,-26.3671875,-4.39453125
7.1484375,-8.7890625,-22.4609375,-21.484375,-1.46484375
7.15234375,-23.92578125,-18.5546875,-18.5546875,-19.53125
7.15625,-25.87890625,-20.01953125,-9.765625,-22.94921875
7.16015625,6.34765625,-13.671875,-20.99609375,-9.27734375
7.1640625,22.4609375,-11.23046875,-38.57421875,9.765625
7.16796875,-3.41796875,-28.80859375,-22.4609375,-11.71875
7.171875,-36.1328125,-27.83203125,-3.41796875,-29.296875
7.17578125,-39.55078125,-13.18359375,-7.32421875,-26.85546875
7.1796875,-28.3203125,-12.20703125,-16.11328125,-28.80859375
7.18359375,-26.85546875,-21.97265625,-12.6953125,-17.578125
7.1875,-19.53125,-30.2734375,-12.20703125,-11.71875
7.19140625,-8.30078125,-44.43359375,-21.97265625,-26.85546875
7.1953125,-20.99609375,-41.015625,-22.94921875,-26.85546875
7.19921875,-32.71484375,-22.4609375,-18.06640625,-23.4375
7.203125,-23.92578125,-18.5546875,-17.578125,-45.8984375
7.20703125,-21.97265625,-20.5078125,-20.99609375,-38.57421875
7.2109375,-15.625,-23.92578125,-25.87890625,-18.5546875
7.21484375,-14.6484375,-17.08984375,-27.83203125,-22.4609375
7.21875,-29.296875,-3.90625,-36.62109375,-23.92578125
7.22265625,-35.64453125,-9.765625,-34.1796875,-29.78515625
7.2265625,-21.97265625,-14.16015625,-26.3671875,-12.6953125
7.23046875,-11.23046875,-10.7421875,-27.83203125,-4.39453125
7.234375,-24.4140625,-27.34375,-17.578125,-26.85546875
7.23828125,-27.83203125,-43.45703125,-7.32421875,-11.23046875
7.2421875,-12.6953125,-30.76171875,-5.859375,0.0
7.24609375,-0.9765625,-23.92578125,-10.7421875,-10.25390625
7.25,0.0,-33.203125,-9.765625,-1.46484375
7.25390625,0.0,-41.015625,-6.8359375,-4.39453125
7.2578125,-15.13671875,-20.01953125,-6.8359375,-27.83203125
7.26171875,-27.83203125,-2.9296875,-13.671875,-34.66796875
7.265625,-31.73828125,-9.27734375,-20.01953125,-18.06640625
7.26953125,-31.25,-6.8359375,-23.4375,-17.578125
7.2734375,-19.04296875,-9.765625,-34.1796875,-33.203125
7.27734375,-10.25390625,-13.671875,-24.4140625,-17.08984375
7.28125,-12.6953125,-21.484375,-10.7421875,5.37109375
7.28515625,-14.16015625,-31.25,-13.18359375,-17.578125
7.2890625,-9.765625,-32.2265625,-20.99609375,-27.34375
7.29296875,-5.859375,-28.3203125,-17.578125,-4.39453125
7.296875,-14.6484375,-20.01953125,-7.32421875,-9.27734375
7.30078125,-14.16015625,-25.390625,-2.44140625,-30.2734375
7.3046875,-15.625,-25.390625,-6.8359375,-17.578125
7.30859375,-20.99609375,-26.85546875,-12.6953125,-13.18359375
7.3125,-22.4609375,-29.78515625,-16.11328125,-27.83203125
7.31640625,-27.34375,-13.671875,-30.2734375,-28.80859375
7.3203125,-27.83203125,-17.578125,-44.43359375,-10.7421875
7.32421875,-22.4609375,-28.3203125,-35.64453125,7.32421875
7.328125,-11.23046875,-24.4140625,-37.109375,-11.71875
7.33203125,3.41796875,-16.6015625,-32.71484375,-7.32421875
7.3359375,-14.16015625,-14.16015625,-5.859375,-8.30078125
7.33984375,-38.0859375,-22.4609375,5.37109375,-44.43359375
7.34375,-39.55078125,-29.78515625,-1.953125,-20.01953125
7.34765625,-45.41015625,-21.97265625,-12.6953125,-16.6015625
7.3515625,-45.41015625,-20.5078125,-13.671875,-33.69140625
7.35546875,-33.203125,-24.4140625,-18.06640625,-26.3671875
7.359375,-26.85546875,-19.04296875,-24.90234375,-31.25
7.36328125,-30.76171875,-17.08984375,-32.2265625,-35.64453125
7.3671875,-31.73828125,-24.4140625,-32.71484375,-27.34375
7.37109375,-29.78515625,-40.0390625,-27.34375,-27.34375
7.375,-16.11328125,-47.8515625,-22.94921875,-26.85546875
7.37890625,-18.06640625,-37.59765625,-24.90234375,-1.953125
7.3828125,-26.85546875,-19.04296875,-20.01953125,-20.99609375
7.38671875,-31.73828125,-18.5546875,-10.7421875,-69.82421875
7.390625,-31.73828125,-16.11328125,-24.4140625,-50.29296875
7.39453125,-15.13671875,-15.625,-35.15625,-11.23046875
7.3984375,-13.18359375,-16.11328125,-12.20703125,-18.06640625
7.40234375,-15.13671875,-6.8359375,4.39453125,-29.296875
7.40625,-12.20703125,-14.6484375,7.8125,-20.01953125
7.41015625,-13.18359375,-13.671875,0.48828125,-22.4609375
7.4140625,-4.39453125,-16.6015625,-13.671875,-5.859375
7.41796875,-3.90625,-32.2265625,-19.04296875,5.37109375
7.421875,-18.06640625,-30.2734375,-19.04296875,-34.66796875
7.42578125,-26.3671875,-28.80859375,-23.4375,-41.50390625
7.4296875,-30.76171875,-14.6484375,-50.29296875,-17.578125
7.43359375,-26.3671875,-15.625,-62.98828125,-12.20703125
7.4375,-32.2265625,-29.78515625,-26.3671875,-33.203125
7.44140625,-31.73828125,-23.92578125,-7.32421875,-36.1328125
7.4453125,-15.13671875,-17.578125,-13.18359375,-12.20703125
7.44921875,-24.90234375,-12.6953125,-11.71875,-20.99609375
7.453125,-34.66796875,-20.5078125,-6.34765625,-31.25
7.45703125,-17.578125,-30.76171875,-8.30078125,-29.78515625
7.4609375,-0.9765625,-21.97265625,-23.92578125,-28.80859375
7.46484375,-12.6953125,-16.6015625,-27.83203125,-3.90625
7.46875,-17.578125,-19.53125,-10.7421875,-2.9296875
7.47265625,-10.7421875,-18.5546875,-3.41796875,-20.5078125
7.4765625,-9.765625,-18.5546875,-7.8125,-14.16015625
7.48046875,-5.859375,-20.99609375,-17.578125,-17.08984375
7.484375,-10.25390625,-21.97265625,-24.4140625,-6.8359375
7.48828125,-10.25390625,-21.97265625,-12.20703125,3.41796875
7.4921875,-14.16015625,-28.80859375,-16.11328125,-17.578125
7.49609375,-9.765625,-45.41015625,-18.5546875,-27.34375
7.5,-5.859375,-45.41015625,-0.48828125,-10.7421875
7.50390625,-20.5078125,-35.15625,-19.53125,-9.27734375
7.5078125,-14.6484375,-26.85546875,-39.55078125,-15.13671875
7.51171875,-14.16015625,-17.578125,-26.3671875,-18.5546875
7.515625,-14.16015625,-14.6484375,-22.94921875,-27.34375
7.51953125,-12.20703125,-18.06640625,-16.11328125,-5.37109375
7.5234375,-17.08984375,-22.4609375,-9.765625,-9.765625
7.52734375,-9.765625,-7.32421875,-39.55078125,-10.7421875
7.53125,-22.4609375,-12.6953125,-45.8984375,-9.765625
7.53515625,-37.59765625,-38.0859375,-17.08984375,-28.80859375
7.5390625,-21.97265625,-34.1796875,-7.8125,-27.34375
7.54296875,-2.44140625,-25.87890625,-12.6953125,-30.76171875
7.546875,-9.765625,-25.87890625,-15.625,-29.78515625
7.55078125,-22.94921875,-19.53125,-20.01953125,-23.92578125
7.5546875,-20.01953125,-20.99609375,-19.53125,-19.53125
7.55859375,-19.04296875,-33.203125,-20.5078125,6.34765625
7.5625,-12.6953125,-34.1796875,-35.15625,2.9296875
7.56640625,-14.6484375,-25.87890625,-31.73828125,-35.64453125
7.5703125,-27.83203125,-11.23046875,-17.578125,-39.55078125
7.57421875,-8.7890625,3.41796875,-8.30078125,-14.16015625
7.578125,5.859375,2.9296875,0.0,-16.11328125
7.58203125,4.8828125,-2.9296875,4.8828125,-14.16015625
7.5859375,9.27734375,-9.765625,-1.953125,-2.9296875
7.58984375,4.39453125,-22.4609375,-10.25390625,-11.71875
7.59375,-0.48828125,-24.4140625,-7.8125,19.04296875
7.59765625,-2.44140625,-20.99609375,-7.8125,9.27734375
7.6015625,-5.37109375,-13.671875,-23.92578125,-13.671875
7.60546875,0.48828125,-12.6953125,-41.50390625,13.671875
7.609375,-0.9765625,-23.92578125,-27.34375,-3.41796875
7.61328125,-4.8828125,-28.3203125,-1.46484375,-15.13671875
7.6171875,-12.6953125,-29.296875,0.9765625,-3.90625
7.62109375,-5.859375,-22.94921875,0.9765625,-18.5546875
7.625,-2.9296875,-24.90234375,-4.39453125,-16.11328125
7.62890625,0.0,-30.76171875,-19.53125,-7.32421875
7.6328125,-12.20703125,-23.4375,-19.53125,-9.27734375
7.63671875,-18.5546875,-24.90234375,-16.6015625,-29.78515625
7.640625,-14.16015625,-31.25,-17.578125,-37.59765625
7.64453125,-15.625,-25.390625,-35.64453125,-7.8125
7.6484375,-13.18359375,-26.3671875,-32.2265625,-12.20703125
7.65234375,-25.390625,-27.34375,-10.25390625,-22.4609375
7.65625,-31.25,-30.76171875,-8.30078125,-31.73828125
7.66015625,-26.3671875,-37.109375,-5.859375,-36.1328125
7.6640625,-14.6484375,-30.2734375,-5.859375,-19.53125
7.66796875,-13.671875,-24.90234375,-20.5078125,-23.92578125
7.671875,-32.2265625,-23.92578125,-35.15625,-28.80859375
7.67578125,-29.78515625,-19.53125,-22.94921875,-31.73828125
7.6796875,-13.671875,-9.765625,-26.3671875,-31.73828125
7.68359375,-19.04296875,-5.37109375,-42.96875,-18.5546875
7.6875,-35.15625,-19.04296875,-26.85546875,-40.52734375
7.69140625,-35.15625,-24.90234375,-12.20703125,-31.73828125
7.6953125,-18.06640625,-23.4375,-13.671875,-14.6484375
7.69921875,-19.04296875,-38.57421875,-12.20703125,-22.94921875
7.703125,-22.4609375,-43.45703125,-16.6015625,-17.08984375
7.70703125,-13.671875,-35.15625,-24.4140625,-11.23046875
7.7109375,-12.20703125,-33.203125,-22.94921875,-6.34765625
7.71484375,-12.6953125,-22.4609375,-15.625,-11.71875
7.71875,-13.18359375,-18.5546875,-10.7421875,-28.3203125
7.72265625,-30.76171875,-20.99609375,-17.578125,-30.2734375
7.7265625,-39.0625,-19.53125,-19.53125,-23.92578125
7.73046875,-21.484375,-24.90234375,-29.296875,-25.87890625
7.734375,-2.9296875,-21.484375,-34.66796875,-21.484375
7.73828125,0.0,-12.20703125,-17.08984375,-16.11328125
7.7421875,-11.71875,-19.53125,-8.30078125,-27.34375
7.74609375,-12.6953125,-31.73828125,-14.16015625,-9.27734375
7.75,-23.4375,-24.90234375,-11.23046875,9.765625
7.75390625,-18.06640625,-13.671875,-28.80859375,-3.90625
7.7578125,0.48828125,-10.25390625,-35.64453125,7.8125
7.76171875,-18.06640625,-7.32421875,1.46484375,-6.34765625
7.765625,-20.99609375,-16.11328125,10.7421875,-37.109375
7.76953125,-10.25390625,-18.06640625,-0.9765625,-43.9453125
7.7734375,-20.01953125,-15.625,-5.859375,-38.0859375
7.77734375,-29.296875,-27.34375,-4.8828125,-36.1328125
7.78125,-26.3671875,-34.1796875,-5.37109375,-51.26953125
7.78515625,-37.59765625,-30.2734375,-16.11328125,-66.40625
7.7890625,-83.0078125,-25.390625,-20.99609375,-62.01171875
7.79296875,-118.65234375,-20.5078125,-22.94921875,-82.51953125
7.796875,-100.09765625,-22.94921875,-17.578125,-96.6796875
7.80078125,-93.26171875,-34.66796875,-6.8359375,-79.1015625
7.8046875,-110.83984375,-33.203125,-26.85546875,-91.30859375
7.80859375,-118.1640625,-30.76171875,-64.94140625,-133.30078125
7.8125,-114.2578125,-45.8984375,-55.17578125,-138.671875
7.81640625,-119.140625,-45.8984375,-36.1328125,-104.4921875
7.8203125,-132.8125,-41.50390625,-34.66796875,-129.39453125
7.82421875,-144.53125,-29.78515625,-9.27734375,-151.3671875
7.828125,-145.5078125,-14.6484375,0.0,-166.015625
7.83203125,-132.32421875,-12.20703125,-13.18359375,-155.2734375
7.8359375,-121.09375,-12.6953125,-29.296875,-123.046875
7.83984375,-117.1875,-10.7421875,-43.45703125,-104.4921875
7.84375,-96.6796875,-14.16015625,-33.203125,-89.84375
7.84765625,-85.9375,-32.2265625,-2.44140625,-93.26171875
7.8515625,-88.37890625,-31.73828125,-1.46484375,-96.6796875
7.85546875,-82.51953125,-19.53125,-10.7421875,-88.8671875
7.859375,-69.82421875,-21.484375,-3.41796875,-53.7109375
7.86328125,-51.7578125,-24.4140625,-0.48828125,-31.25
7.8671875,-54.6875,-23.92578125,-5.859375,-51.26953125
7.87109375,-58.10546875,-27.83203125,-10.7421875,-64.453125
7.875,-41.015625,-27.83203125,-13.671875,-43.45703125
7.87890625,-33.203125,-28.80859375,-19.53125,-25.390625
7.8828125,-33.69140625,-21.484375,-36.62109375,-12.6953125
7.88671875,-10.7421875,-18.06640625,-52.734375,-15.625
7.890625,7.8125,-20.01953125,-27.83203125,-35.15625
7.89453125,11.71875,-20.5078125,5.859375,-10.25390625
7.8984375,-2.44140625,-15.13671875,0.0,-5.859375
7.90234375,-5.859375,-14.6484375,-14.16015625,-27.34375
7.90625,7.32421875,-28.80859375,-22.4609375,-15.13671875
7.91015625,13.18359375,-23.4375,-30.2734375,20.5078125
7.9140625,19.53125,-10.25390625,-33.203125,28.80859375
7.91796875,-4.8828125,-29.78515625,-24.4140625,4.8828125
7.921875,-13.671875,-36.62109375,-20.5078125,-5.37109375
7.92578125,9.765625,-26.3671875,-21.484375,-0.9765625
7.9296875,9.27734375,-27.83203125,-24.90234375,15.13671875
7.93359375,3.41796875,-23.4375,-31.73828125,18.06640625
7.9375,14.6484375,-20.99609375,-16.6015625,-3.41796875
7.94140625,19.04296875,-24.90234375,-8.7890625,-21.484375
7.9453125,24.4140625,-14.6484375,-14.6484375,10.7421875
7.94921875,20.5078125,-20.99609375,-31.73828125,39.0625
7.953125,25.87890625,-22.4609375,-37.109375,33.203125
7.95703125,32.71484375,-10.7421875,-22.94921875,15.13671875
7.9609375,7.32421875,-11.23046875,-12.20703125,-0.9765625
7.96484375,-0.48828125,-15.13671875,-10.25390625,3.90625
7.96875,8.30078125,-12.6953125,-12.20703125,17.578125
7.97265625,17.578125,-10.7421875,-11.71875,28.3203125
7.9765625,20.99609375,-7.32421875,-4.8828125,18.5546875
7.98046875,25.390625,-6.34765625,-8.7890625,25.390625
7.984375,29.296875,-21.97265625,-15.13671875,19.53125
7.98828125,21.97265625,-24.90234375,-24.4140625,0.48828125
7.9921875,22.4609375,-19.04296875,-37.109375,19.53125
7.99609375,20.01953125,-23.92578125,-29.296875,29.296875
8.0,11.71875,-16.11328125,-32.2265625,17.08984375
8.00390625,37.109375,-19.04296875,-28.80859375,20.99609375
8.0078125,41.50390625,-21.484375,-2.9296875,23.92578125
8.01171875,25.87890625,-12.20703125,1.46484375,8.7890625
8.015625,19.04296875,-22.94921875,-14.6484375,6.8359375
8.01953125,14.6484375,-23.4375,-37.59765625,6.34765625
8.0234375,7.8125,-12.6953125,-25.390625,14.6484375
8.02734375,-0.9765625,-17.578125,-23.92578125,36.1328125
8.03125,7.32421875,-25.390625,-37.109375,39.0625
8.03515625,5.859375,-29.296875,-22.4609375,11.71875
8.0390625,-13.671875,-26.85546875,-16.11328125,-30.76171875
8.04296875,-11.71875,-24.4140625,-28.80859375,-23.92578125
8.046875,19.53125,-25.390625,-35.15625,-13.671875
8.05078125,13.671875,-32.71484375,-40.52734375,-12.6953125
8.0546875,-20.99609375,-33.203125,-50.78125,-11.71875
8.05859375,-26.3671875,-25.87890625,-45.41015625,-20.5078125
8.0625,-19.53125,-32.2265625,-29.78515625,-20.99609375
8.06640625,-11.23046875,-31.25,-33.203125,-6.34765625
8.0703125,10.25390625,-27.34375,-39.55078125,17.578125
8.07421875,16.11328125,-41.9921875,-32.71484375,13.671875
8.078125,-1.46484375,-38.57421875,-34.1796875,-2.44140625
8.08203125,5.37109375,-30.2734375,-36.1328125,10.7421875
8.0859375,11.23046875,-27.83203125,-35.64453125,1.953125
8.08984375,-7.32421875,-20.5078125,-42.96875,-24.4140625
8.09375,5.37109375,-11.23046875,-49.8046875,-4.39453125
8.09765625,4.39453125,-19.53125,-38.57421875,-2.9296875
8.1015625,-13.671875,-34.1796875,-25.390625,-28.3203125
8.10546875,-0.9765625,-32.71484375,-27.34375,-22.94921875
8.109375,-0.9765625,-36.1328125,-40.0390625,-11.23046875
8.11328125,-8.30078125,-39.0625,-43.45703125,-14.16015625
8.1171875,-7.8125,-40.0390625,-32.71484375,-9.27734375
8.12109375,-4.8828125,-33.69140625,-23.4375,4.39453125
8.125,0.48828125,-22.4609375,-20.5078125,-6.34765625
8.12890625,5.859375,-21.484375,-19.53125,-8.30078125
8.1328125,1.46484375,-16.6015625,-22.94921875,-7.8125
8.13671875,-8.30078125,-16.11328125,-25.87890625,-8.30078125
8.140625,-15.13671875,-16.11328125,-26.3671875,-0.9765625
8.14453125,-14.6484375,-23.4375,-29.78515625,4.39453125
8.1484375,13.18359375,-42.96875,-27.34375,24.90234375
8.15234375,30.2734375,-45.41015625,-28.3203125,18.06640625
8.15625,4.8828125,-36.1328125,-37.109375,-9.27734375
8.16015625,-17.08984375,-25.390625,-41.015625,-12.20703125
8.1640625,-16.6015625,-8.30078125,-33.69140625,-16.6015625
8.16796875,-15.13671875,-0.9765625,-24.90234375,-10.25390625
8.171875,-31.25,-9.27734375,-28.3203125,-20.5078125
8.17578125,-14.6484375,-11.71875,-25.87890625,-33.203125
8.1796875,-4.39453125,-17.08984375,-31.73828125,-13.671875
8.18359375,3.90625,-29.296875,-24.4140625,-10.7421875
8.1875,22.94921875,-27.83203125,-13.671875,-5.859375
8.19140625,2.44140625,-20.5078125,-23.92578125,0.48828125
8.1953125,-2.9296875,-14.6484375,-38.0859375,0.48828125
8.19921875,4.8828125,-13.18359375,-47.36328125,16.6015625
8.203125,-16.11328125,-19.53125,-28.3203125,8.7890625
8.20703125,-31.25,-13.18359375,-10.25390625,-12.6953125
8.2109375,-34.66796875,-0.9765625,-6.8359375,-18.5546875
8.21484375,-25.87890625,-13.671875,-4.8828125,-20.5078125
8.21875,-3.90625,-15.13671875,-10.7421875,-30.76171875
8.22265625,-5.859375,-10.25390625,-9.765625,-28.80859375
8.2265625,-10.7421875,-22.4609375,-7.32421875,-18.5546875
8.23046875,-8.7890625,-23.4375,-11.71875,-7.8125
8.234375,-20.5078125,-18.5546875,-2.9296875,-14.6484375
8.23828125,-29.78515625,-12.20703125,-32.2265625,-11.23046875
8.2421875,-22.4609375,-1.46484375,-52.734375,-14.16015625
8.24609375,-14.6484375,-3.41796875,-23.4375,-19.53125
8.25,-15.13671875,-22.94921875,-13.671875,-3.41796875
8.25390625,-12.6953125,-39.0625,-5.859375,0.0
8.2578125,-4.39453125,-25.87890625,-4.8828125,-24.90234375
8.26171875,-15.625,-17.08984375,-18.5546875,-20.99609375
8.265625,-25.87890625,-16.6015625,-26.3671875,9.765625
8.26953125,-24.90234375,-12.6953125,-31.25,-8.30078125
8.2734375,-12.20703125,-16.11328125,-27.34375,-46.38671875
8.27734375,0.9765625,-32.71484375,-20.99609375,-24.90234375
8.28125,-13.671875,-36.1328125,-19.04296875,-2.9296875
8.28515625,-31.73828125,-15.625,-27.34375,-36.1328125
8.2890625,-20.5078125,-3.90625,-46.38671875,-39.55078125
8.29296875,-21.484375,-25.390625,-39.0625,-23.92578125
8.296875,-43.45703125,-33.69140625,-19.53125,-31.73828125
8.30078125,-39.0625,-19.53125,-27.83203125,-19.53125
8.3046875,-28.80859375,-14.6484375,-16.6015625,-6.8359375
8.30859375,-22.4609375,-16.11328125,-10.7421875,-28.3203125
8.3125,-16.6015625,-19.04296875,-16.6015625,-39.0625
8.31640625,-17.578125,-21.97265625,-13.18359375,-21.97265625
8.3203125,-4.8828125,-26.3671875,-18.5546875,-6.34765625
8.32421875,6.8359375,-19.04296875,-32.2265625,-10.25390625
8.328125,5.859375,-11.71875,-36.62109375,-5.859375
8.33203125,-18.06640625,-25.390625,-14.16015625,-22.94921875
8.3359375,-47.36328125,-23.92578125,-7.32421875,-49.31640625
8.33984375,-43.9453125,-13.671875,-18.5546875,-45.8984375
8.34375,-8.30078125,-12.6953125,-14.6484375,-24.90234375
8.34765625,10.25390625,-6.34765625,-24.4140625,20.99609375
8.3515625,28.3203125,-13.671875,-31.73828125,18.5546875
8.35546875,36.62109375,-29.296875,-24.90234375,-16.11328125
8.359375,10.7421875,-14.6484375,-16.6015625,-8.7890625
8.36328125,-6.8359375,-7.32421875,-11.71875,-4.8828125
8.3671875,-10.7421875,-14.6484375,-19.04296875,-7.32421875
8.37109375,-7.8125,-16.11328125,-19.04296875,-3.90625
8.375,-16.6015625,-19.53125,-19.04296875,-0.9765625
8.37890625,-33.203125,-13.671875,-20.01953125,-22.94921875
8.3828125,-28.80859375,-7.32421875,-14.16015625,-16.11328125
8.38671875,-4.39453125,-21.484375,-24.90234375,12.20703125
8.390625,0.9765625,-29.296875,-46.38671875,-16.11328125
8.39453125,-11.71875,-23.92578125,-44.43359375,-27.34375
8.3984375,-23.92578125,-25.87890625,-17.08984375,-23.4375
8.40234375,-7.32421875,-19.53125,3.90625,-3.41796875
8.40625,4.8828125,-9.27734375,-10.7421875,6.8359375
8.41015625,-29.296875,-12.20703125,-27.83203125,-29.296875
8.4140625,-54.6875,-10.7421875,-15.625,-38.0859375
8.41796875,-33.69140625,-5.37109375,-24.4140625,-39.0625
8.421875,-23.4375,-22.4609375,-35.64453125,-47.36328125
8.42578125,-34.66796875,-31.25,-30.76171875,-53.7109375
8.4296875,-27.34375,-21.97265625,-25.87890625,-71.2890625
8.43359375,-32.2265625,-28.80859375,-28.3203125,-79.1015625
8.4375,-32.71484375,-17.578125,-44.43359375,-47.8515625
8.44140625,-34.66796875,-5.37109375,-62.5,-36.62109375
8.4453125,-62.5,-15.625,-63.4765625,-90.33203125
8.44921875,-71.77734375,-4.8828125,-59.5703125,-112.79296875
8.453125,-61.5234375,10.7421875,-46.875,-92.28515625
8.45703125,-43.45703125,8.30078125,-36.62109375,-68.84765625
8.4609375,-10.25390625,-10.25390625,-27.34375,-45.41015625
8.46484375,14.6484375,-3.90625,-34.66796875,-15.13671875
8.46875,0.0,-0.48828125,-49.31640625,-27.34375
8.47265625,-21.484375,-14.16015625,-26.3671875,-47.36328125
8.4765625,-35.64453125,-9.27734375,-14.16015625,-51.7578125
8.48046875,-24.4140625,-1.953125,-24.4140625,-55.17578125
8.484375,-13.18359375,-4.39453125,-28.80859375,-59.5703125
8.48828125,-24.4140625,-0.9765625,-33.203125,-53.7109375
8.4921875,-25.87890625,-9.765625,-32.2265625,-47.8515625
8.49609375,-21.484375,-26.85546875,-17.08984375,-38.0859375
8.5,-21.97265625,-25.87890625,-15.13671875,-35.64453125
8.50390625,-21.97265625,-10.25390625,-31.73828125,-7.8125
8.5078125,-15.625,-4.8828125,-42.96875,1.953125
8.51171875,4.39453125,-21.484375,-35.15625,-38.57421875
8.515625,-4.39453125,-34.1796875,-30.76171875,-39.55078125
8.51953125,-23.92578125,-26.3671875,-33.203125,-23.4375
8.5234375,-21.97265625,-18.5546875,-28.80859375,-23.92578125
8.52734375,-15.13671875,-23.4375,-18.5546875,-36.1328125
8.53125,-15.13671875,-24.4140625,-17.578125,-27.34375
8.53515625,-14.16015625,-11.23046875,-24.90234375,-11.71875
8.5390625,0.48828125,-12.6953125,-23.4375,-10.25390625
8.54296875,2.9296875,-23.4375,-15.625,-3.90625
8.546875,-1.46484375,-18.06640625,-32.2265625,-16.6015625
8.55078125,-11.71875,-16.11328125,-51.26953125,-39.55078125
8.5546875,-8.30078125,-20.99609375,-27.83203125,-26.3671875
8.55859375,-16.6015625,-34.66796875,-12.20703125,-30.76171875
8.5625,-13.18359375,-49.31640625,-18.5546875,-40.0390625
8.56640625,-23.92578125,-46.875,-23.92578125,-55.6640625
8.5703125,-41.9921875,-19.04296875,-33.203125,-60.05859375
8.57421875,-40.0390625,-0.9765625,-39.0625,-71.2890625
8.578125,-45.8984375,-3.90625,-40.0390625,-94.23828125
8.58203125,-35.64453125,0.0,-55.6640625,-53.22265625
8.5859375,-32.71484375,-0.48828125,-69.82421875,-41.015625
8.58984375,-27.34375,-5.859375,-49.8046875,-50.78125
8.59375,-27.34375,-17.578125,-28.3203125,-60.05859375
8.59765625,-39.55078125,-30.76171875,-16.6015625,-79.1015625
8.6015625,-46.38671875,-20.99609375,-16.11328125,-51.7578125
8.60546875,-38.0859375,-2.9296875,-35.15625,-50.29296875
8.609375,-31.73828125,0.0,-39.55078125,-66.89453125
8.61328125,-19.04296875,-0.48828125,-26.85546875,-39.0625
8.6171875,6.34765625,0.0,-20.5078125,-11.23046875
8.62109375,4.8828125,-6.34765625,-8.7890625,-28.80859375
8.625,2.44140625,-4.39453125,-18.06640625,-41.50390625
8.62890625,4.8828125,-13.671875,-39.55078125,-35.64453125
8.6328125,-9.27734375,-33.203125,-23.4375,-34.66796875
8.63671875,-20.99609375,-41.9921875,-12.6953125,-16.11328125
8.640625,-40.0390625,-31.25,-16.11328125,-23.92578125
8.64453125,-30.76171875,-19.53125,-9.765625,-23.92578125
8.6484375,-4.8828125,-22.94921875,-4.8828125,-21.97265625
8.65234375,-8.30078125,-12.20703125,-15.13671875,-40.0390625
8.65625,-12.20703125,1.46484375,-26.85546875,-14.6484375
8.66015625,-12.20703125,-10.7421875,-29.78515625,-8.7890625
8.6640625,-9.27734375,-23.4375,-37.109375,-13.671875
8.66796875,0.48828125,-18.5546875,-29.296875,-25.390625
8.671875,-13.18359375,-17.578125,-20.99609375,-30.2734375
8.67578125,-10.7421875,-20.5078125,-16.11328125,-14.6484375
8.6796875,0.0,-22.4609375,-0.48828125,-10.7421875
8.68359375,-4.39453125,-26.3671875,1.953125,-17.578125
8.6875,-12.20703125,-24.90234375,-4.39453125,-31.25
8.69140625,-13.671875,-22.94921875,-18.5546875,-31.73828125
8.6953125,-1.953125,-29.296875,-9.27734375,-11.23046875
8.69921875,16.11328125,-28.3203125,-13.671875,6.34765625
8.703125,5.37109375,-30.2734375,-20.5078125,-22.4609375
8.70703125,-23.92578125,-42.96875,-4.8828125,-26.3671875
8.7109375,-18.5546875,-34.1796875,-1.953125,-0.48828125
8.71484375,-10.7421875,-9.27734375,-26.3671875,-14.16015625
8.71875,-37.109375,-5.859375,-38.0859375,-31.25
8.72265625,-61.03515625,-16.11328125,-20.01953125,-46.875
8.7265625,-44.43359375,-23.92578125,-18.5546875,-46.875
8.73046875,-19.53125,-33.203125,-21.97265625,-42.48046875
8.734375,-17.08984375,-32.71484375,-23.4375,-31.73828125
8.73828125,-24.4140625,-30.76171875,-15.625,-31.25
8.7421875,-18.06640625,-31.73828125,-7.8125,-25.87890625
8.74609375,-0.48828125,-25.87890625,-7.8125,1.46484375
8.75,8.30078125,-10.25390625,-10.7421875,5.859375
8.75390625,4.39453125,-8.7890625,-12.20703125,-20.99609375
8.7578125,-1.953125,-16.11328125,-14.16015625,-27.34375
8.76171875,12.20703125,-17.578125,-39.55078125,-9.765625
8.765625,21.484375,-19.53125,-48.33984375,-7.32421875
8.76953125,-0.48828125,-25.390625,-24.4140625,-9.27734375
8.7734375,-21.484375,-13.671875,-15.13671875,-21.97265625
8.77734375,-23.4375,-1.953125,-24.4140625,-23.92578125
8.78125,-32.2265625,-10.25390625,-19.53125,-9.765625
8.78515625,-27.83203125,-21.97265625,-5.859375,-21.97265625
8.7890625,-41.50390625,-28.80859375,-3.41796875,-19.53125
8.79296875,-40.0390625,-26.85546875,-7.8125,-10.7421875
8.796875,0.0,-23.92578125,-9.765625,-6.8359375
8.80078125,7.32421875,-13.18359375,-24.90234375,4.8828125
8.8046875,12.20703125,-19.04296875,-25.87890625,-12.20703125
8.80859375,-0.9765625,-25.87890625,6.34765625,-3.41796875
8.8125,-15.13671875,-12.20703125,12.6953125,-6.8359375
8.81640625,-17.08984375,-0.9765625,-2.44140625,-32.71484375
8.8203125,-34.1796875,-1.46484375,-13.671875,-37.59765625
8.82421875,-25.390625,-1.953125,-15.13671875,-27.83203125
8.828125,-9.765625,-4.8828125,-14.6484375,-1.953125
8.83203125,-11.71875,-17.08984375,-6.34765625,-6.34765625
8.8359375,-7.32421875,-17.578125,-17.578125,-20.5078125
8.83984375,-15.625,-12.6953125,-28.80859375,7.32421875
8.84375,-22.4609375,-16.11328125,-9.765625,-6.34765625
8.84765625,-13.671875,-18.5546875,-1.46484375,-5.37109375
8.8515625,-16.6015625,-34.66796875,0.0,-7.32421875
8.85546875,-13.18359375,-33.203125,-5.37109375,-20.01953125
8.859375,-2.9296875,-2.44140625,-17.578125,-6.8359375
8.86328125,-3.41796875,9.765625,-13.18359375,4.39453125
8.8671875,-12.20703125,-3.90625,-21.484375,-20.5078125
8.87109375,-34.66796875,-10.25390625,-23.4375,-57.12890625
8.875,-54.6875,-16.11328125,0.48828125,-27.83203125
8.87890625,-40.52734375,-20.5078125,15.625,-4.39453125
8.8828125,-29.296875,-20.01953125,7.32421875,-33.69140625
8.88671875,-29.296875,-29.296875,5.859375,-42.96875
8.890625,-11.23046875,-24.90234375,-5.37109375,-22.94921875
8.89453125,5.37109375,-20.99609375,-28.80859375,-6.8359375
8.8984375,-14.6484375,-30.2734375,-12.6953125,-21.484375
8.90234375,-31.25,-28.3203125,4.8828125,-32.71484375
8.90625,-16.6015625,-14.16015625,0.9765625,-18.06640625
8.91015625,-20.01953125,-6.34765625,-11.71875,-16.6015625
8.9140625,-26.3671875,-19.53125,-23.92578125,-5.37109375
8.91796875,-14.6484375,-25.87890625,-19.53125,-15.13671875
8.921875,-27.34375,-15.625,-3.90625,-45.41015625
8.92578125,-21.97265625,-11.71875,-6.34765625,-33.69140625
8.9296875,-11.71875,-12.20703125,-19.04296875,-17.08984375
8.93359375,-13.18359375,-11.23046875,-5.37109375,-12.6953125
8.9375,-17.08984375,-21.97265625,3.90625,-18.06640625
8.94140625,-26.85546875,-32.2265625,0.0,-11.71875
8.9453125,-40.0390625,-29.78515625,1.46484375,-11.23046875
8.94921875,-42.96875,-34.1796875,-26.85546875,-43.9453125
8.953125,-38.0859375,-32.2265625,-34.66796875,-25.87890625
8.95703125,-29.78515625,-21.484375,-12.6953125,-6.34765625
8.9609375,-24.4140625,-26.3671875,-20.99609375,-33.69140625
8.96484375,-26.85546875,-30.76171875,-18.06640625,-39.0625
8.96875,-26.85546875,-26.85546875,-9.765625,-38.57421875
8.97265625,-35.64453125,-28.80859375,-8.7890625,-36.1328125
8.9765625,-19.53125,-19.04296875,-8.7890625,-34.1796875
8.98046875,-1.953125,-10.25390625,-14.6484375,-2.9296875
8.984375,-8.7890625,-22.4609375,-20.99609375,0.48828125
8.98828125,-30.2734375,-28.3203125,-33.203125,-30.2734375
8.9921875,-27.34375,-18.06640625,-32.2265625,-12.6953125
8.99609375,-5.859375,-10.25390625,-23.4375,4.8828125
9.0,-30.76171875,-14.6484375,-17.08984375,-7.8125
9.00390625,-41.50390625,-14.6484375,-12.6953125,-32.71484375
9.0078125,12.6953125,-3.41796875,-15.13671875,-6.8359375
9.01171875,19.53125,-7.8125,-7.32421875,20.5078125
9.015625,-31.25,-26.85546875,-4.39453125,-15.625
9.01953125,-32.2265625,-29.78515625,-8.7890625,-37.59765625
9.0234375,-31.73828125,-29.296875,-4.39453125,-3.90625
9.02734375,-28.3203125,-26.85546875,-4.39453125,37.59765625
9.03125,-14.6484375,-21.97265625,-23.4375,6.34765625
9.03515625,-17.08984375,-40.52734375,-5.37109375,-24.4140625
9.0390625,-7.8125,-40.52734375,15.625,-22.94921875
9.04296875,-11.23046875,-30.76171875,0.0,-23.92578125
9.046875,-24.4140625,-26.85546875,-2.44140625,-34.1796875
9.05078125,-36.1328125,-24.4140625,-1.953125,-28.3203125
9.0546875,-43.9453125,-25.390625,-6.8359375,-32.71484375
9.05859375,-41.9921875,-27.34375,-19.53125,-19.53125
9.0625,-21.484375,-27.83203125,-20.5078125,-7.8125
9.06640625,-14.16015625,-13.671875,-18.06640625,-21.97265625
9.0703125,-14.16015625,-11.23046875,-20.99609375,-22.4609375
9.07421875,0.48828125,-31.25,-16.6015625,-13.671875
9.078125,18.06640625,-28.80859375,-13.671875,9.765625
9.08203125,-11.23046875,-12.20703125,-14.6484375,-27.34375
9.0859375,-30.2734375,-12.6953125,-10.7421875,-50.78125
9.08984375,-20.5078125,-19.53125,-5.859375,-29.78515625
9.09375,-7.8125,-12.6953125,-17.08984375,-10.7421875
9.09765625,0.9765625,-6.8359375,-37.109375,13.671875
9.1015625,-8.7890625,-11.71875,-33.69140625,0.9765625
9.10546875,-10.25390625,-16.11328125,-13.18359375,-22.94921875
9.109375,-5.859375,-16.11328125,-9.27734375,-21.97265625
9.11328125,0.9765625,-15.13671875,-26.3671875,0.9765625
9.1171875,2.9296875,-22.4609375,-24.90234375,0.0
9.12109375,-5.37109375,-24.4140625,-10.7421875,-19.04296875
9.125,-12.20703125,-13.18359375,-26.85546875,-26.3671875
9.12890625,-15.13671875,-17.578125,-39.0625,-0.48828125
9.1328125,-30.76171875,-22.94921875,-20.01953125,-0.48828125
9.13671875,-22.4609375,-12.6953125,-16.11328125,-14.16015625
9.140625,-6.8359375,-15.625,-21.97265625,-20.5078125
9.14453125,-25.390625,-34.66796875,-20.01953125,-44.921875
9.1484375,-32.2265625,-33.69140625,-18.5546875,-40.52734375
9.15234375,-48.828125,-30.76171875,-20.99609375,-29.296875
9.15625,-49.31640625,-45.8984375,-17.08984375,-42.96875
9.16015625,-28.3203125,-38.57421875,-11.23046875,-37.109375
9.1640625,-18.5546875,-24.90234375,-15.625,-12.6953125
9.16796875,-21.484375,-23.4375,-17.578125,-8.7890625
9.171875,-24.4140625,-14.6484375,-34.66796875,-20.01953125
9.17578125,-22.94921875,-16.11328125,-43.45703125,-27.34375
9.1796875,-11.23046875,-22.4609375,-17.578125,-22.94921875
9.18359375,4.8828125,-18.5546875,-10.25390625,-17.08984375
9.1875,-13.18359375,-29.78515625,-16.6015625,-23.4375
9.19140625,-25.390625,-30.2734375,-15.625,-35.15625
9.1953125,-10.25390625,-22.4609375,-19.53125,-24.90234375
9.19921875,-9.765625,-30.2734375,-23.92578125,-17.08984375
9.203125,-20.99609375,-24.90234375,-18.06640625,-36.1328125
9.20703125,-14.16015625,-10.7421875,-22.4609375,-15.13671875
9.2109375,-4.39453125,-10.25390625,-30.76171875,14.16015625
9.21484375,-10.25390625,-20.01953125,-10.7421875,-22.94921875
9.21875,-2.44140625,-22.94921875,-3.41796875,-34.66796875
9.22265625,2.9296875,-28.3203125,-4.8828125,-15.625
9.2265625,-2.9296875,-26.85546875,-0.9765625,-14.6484375
9.23046875,-29.296875,-24.4140625,-5.859375,-12.20703125
9.234375,-37.59765625,-30.2734375,-10.25390625,-4.39453125
9.23828125,0.9765625,-35.64453125,-13.18359375,-5.37109375
9.2421875,10.25390625,-32.2265625,-10.25390625,-5.37109375
9.24609375,-29.78515625,-15.13671875,-15.13671875,-16.11328125
9.25,-51.7578125,-3.41796875,-17.08984375,-40.0390625
9.25390625,-61.03515625,-6.8359375,-13.671875,-19.53125
9.2578125,-35.15625,-16.6015625,-15.13671875,-15.625
9.26171875,-1.46484375,-20.5078125,-20.5078125,-52.24609375
9.265625,-17.08984375,-26.85546875,-29.296875,-60.546875
9.26953125,-15.13671875,-26.3671875,-25.87890625,-37.109375
9.2734375,-19.53125,-23.92578125,-19.53125,-33.69140625
9.27734375,-46.875,-27.83203125,-23.92578125,-46.875
9.28125,-41.9921875,-26.3671875,-26.85546875,-42.48046875
9.28515625,-33.203125,-23.4375,-31.73828125,-44.43359375
9.2890625,-54.19921875,-25.87890625,-35.15625,-62.01171875
9.29296875,-69.3359375,-18.5546875,-29.296875,-80.56640625
9.296875,-76.171875,-4.8828125,-26.85546875,-86.42578125
9.30078125,-67.3828125,-7.32421875,-40.0390625,-91.796875
9.3046875,-81.0546875,-22.4609375,-41.9921875,-116.2109375
9.30859375,-134.765625,-32.71484375,-17.578125,-163.0859375
9.3125,-158.203125,-32.71484375,-12.20703125,-160.15625
9.31640625,-160.15625,-29.296875,-19.04296875,-157.2265625
9.3203125,-185.05859375,-46.38671875,-12.6953125,-171.875
9.32421875,-186.03515625,-54.6875,-9.765625,-174.8046875
9.328125,-169.921875,-41.50390625,-13.671875,-173.33984375
9.33203125,-170.8984375,-35.64453125,-7.32421875,-145.5078125
9.3359375,-151.85546875,-34.1796875,-4.39453125,-130.859375
9.33984375,-136.71875,-34.1796875,-7.32421875,-132.32421875
9.34375,-125.9765625,-28.80859375,-24.90234375,-119.140625
9.34765625,-109.375,-29.296875,-19.53125,-79.58984375
9.3515625,-102.05078125,-27.83203125,9.27734375,-70.80078125
9.35546875,-103.02734375,-24.4140625,14.16015625,-75.1953125
9.359375,-71.2890625,-24.90234375,12.20703125,-52.734375
9.36328125,-26.3671875,-21.97265625,11.71875,-33.69140625
9.3671875,-30.76171875,-33.69140625,14.16015625,-23.92578125
9.37109375,-29.78515625,-41.9921875,8.30078125,-13.671875
9.375,-13.18359375,-32.2265625,3.90625,0.0
9.37890625,-8.30078125,-25.87890625,19.04296875,-1.46484375
9.3828125,6.8359375,-29.78515625,28.3203125,-13.671875
9.38671875,0.48828125,-30.2734375,25.390625,3.90625
9.390625,-3.90625,-20.99609375,13.18359375,13.18359375
9.39453125,23.4375,-20.5078125,-1.46484375,28.80859375
9.3984375,30.76171875,-28.3203125,2.44140625,35.15625
9.40234375,4.39453125,-28.80859375,4.39453125,19.04296875
9.40625,-28.3203125,-24.4140625,2.44140625,20.01953125
9.41015625,-21.97265625,-26.3671875,-4.39453125,40.52734375
9.4140625,10.7421875,-17.578125,-12.20703125,48.828125
9.41796875,10.25390625,-9.765625,-5.37109375,29.296875
9.421875,6.8359375,-11.71875,-3.41796875,21.484375
9.42578125,9.765625,-21.484375,0.9765625,15.13671875
9.4296875,1.46484375,-26.3671875,1.953125,-11.23046875
9.43359375,-2.9296875,-23.92578125,-10.7421875,-19.53125
9.4375,21.97265625,-31.25,-10.25390625,12.20703125
9.44140625,33.69140625,-44.43359375,-10.7421875,21.97265625
9.4453125,17.08984375,-40.52734375,-14.6484375,17.08984375
9.44921875,-10.25390625,-27.83203125,-12.20703125,11.23046875
9.453125,-17.08984375,-18.06640625,-18.5546875,13.671875
9.45703125,-19.53125,-21.484375,-20.5078125,11.23046875
9.4609375,-9.27734375,-19.04296875,-5.859375,9.765625
9.46484375,-12.20703125,-16.6015625,2.9296875,6.8359375
9.46875,-24.90234375,-33.69140625,-5.859375,-12.20703125
9.47265625,-26.3671875,-40.0390625,-6.34765625,-22.4609375
9.4765625,-30.76171875,-24.4140625,-10.7421875,-23.92578125
9.48046875,-30.2734375,-18.06640625,-36.62109375,-27.83203125
9.484375,-52.734375,-27.83203125,-29.78515625,-54.6875
9.48828125,-81.0546875,-31.25,-4.39453125,-87.890625
9.4921875,-91.796875,-35.64453125,-1.46484375,-79.58984375
9.49609375,-111.328125,-38.57421875,-5.859375,-80.078125
9.5,-126.46484375,-41.015625,-5.37109375,-113.28125
9.50390625,-118.1640625,-36.62109375,-10.25390625,-134.27734375
9.5078125,-143.06640625,-37.59765625,-19.04296875,-131.8359375
9.51171875,-181.15234375,-46.38671875,-13.671875,-153.80859375
9.515625,-192.3828125,-41.9921875,-8.7890625,-175.29296875
9.51953125,-180.17578125,-31.73828125,-5.859375,-170.8984375
9.5234375,-159.66796875,-34.66796875,-2.9296875,-157.71484375
9.52734375,-137.6953125,-46.875,-4.8828125,-135.25390625
9.53125,-128.41796875,-46.875,6.34765625,-117.67578125
9.53515625,-123.53515625,-49.8046875,1.46484375,-119.62890625
9.5390625,-116.2109375,-49.31640625,-8.7890625,-98.14453125
9.54296875,-133.7890625,-36.62109375,-0.48828125,-100.5859375
9.546875,-113.28125,-24.90234375,2.9296875,-101.07421875
9.55078125,-72.75390625,-22.94921875,-13.18359375,-57.6171875
9.5546875,-56.640625,-33.203125,-31.73828125,-35.64453125
9.55859375,-36.62109375,-29.78515625,-8.30078125,-29.78515625
9.5625,-29.78515625,-28.3203125,7.8125,-35.64453125
9.56640625,-23.92578125,-37.109375,5.37109375,-39.55078125
9.5703125,-20.01953125,-32.71484375,1.46484375,-17.578125
9.57421875,-22.4609375,-37.59765625,-4.39453125,-6.8359375
9.578125,-4.8828125,-39.0625,-8.7890625,17.08984375
9.58203125,18.5546875,-22.4609375,-13.18359375,20.99609375
9.5859375,26.85546875,-10.7421875,-18.5546875,18.5546875
9.58984375,29.296875,-10.7421875,-19.04296875,36.62109375
9.59375,25.87890625,-21.484375,-18.5546875,26.3671875
9.59765625,27.83203125,-20.01953125,-14.6484375,21.97265625
9.6015625,37.109375,-10.25390625,-38.0859375,29.78515625
9.60546875,36.62109375,-13.18359375,-36.1328125,46.38671875
9.609375,28.3203125,-16.11328125,-12.20703125,42.96875
9.61328125,18.5546875,-18.06640625,-17.578125,15.13671875
9.6171875,27.34375,-15.13671875,-19.53125,26.85546875
9.62109375,46.38671875,-15.625,-28.80859375,50.78125
9.625,46.875,-22.94921875,-20.01953125,47.36328125
9.62890625,56.15234375,-15.13671875,-2.9296875,47.8515625
9.6328125,50.29296875,-19.04296875,-18.06640625,50.78125
9.63671875,26.3671875,-20.01953125,-29.296875,31.73828125
9.640625,30.76171875,-14.16015625,-15.13671875,37.109375
9.64453125,28.80859375,-14.16015625,-13.671875,42.96875
9.6484375,31.25,-14.6484375,-15.625,32.2265625
9.65234375,36.62109375,-26.85546875,-21.484375,44.43359375
9.65625,39.0625,-28.3203125,-33.203125,42.48046875
9.66015625,38.0859375,-23.92578125,-31.25,37.109375
9.6640625,47.36328125,-22.4609375,-26.85546875,36.62109375
9.66796875,54.19921875,-23.4375,-20.99609375,42.48046875
9.671875,30.2734375,-20.99609375,-29.78515625,42.96875
9.67578125,22.4609375,-10.25390625,-41.9921875,40.52734375
9.6796875,43.9453125,-9.27734375,-15.625,49.31640625
9.68359375,75.68359375,-16.6015625,11.71875,67.3828125
9.6875,77.1484375,-10.25390625,2.44140625,72.265625
9.69140625,44.921875,-4.8828125,-9.27734375,58.10546875
9.6953125,30.76171875,-4.8828125,-19.53125,42.48046875
9.69921875,21.97265625,-0.48828125,-27.34375,11.23046875
9.703125,26.3671875,2.44140625,-21.484375,11.71875
9.70703125,30.2734375,-3.90625,-25.390625,-6.8359375
9.7109375,42.48046875,-17.08984375,-23.4375,-11.71875
9.71484375,59.5703125,-8.30078125,-25.390625,34.66796875
9.71875,52.734375,0.0,-41.50390625,21.484375
9.72265625,19.53125,-8.30078125,-54.19921875,-14.6484375
9.7265625,7.8125,-4.8828125,-55.17578125,-24.90234375
9.73046875,17.08984375,-2.44140625,-62.5,-28.80859375
9.734375,16.11328125,-7.32421875,-74.21875,-32.2265625
9.73828125,14.16015625,-2.9296875,-72.265625,-16.11328125
9.7421875,26.3671875,7.32421875,-62.98828125,-9.765625
9.74609375,43.45703125,9.27734375,-75.68359375,-11.71875
9.75,41.50390625,14.16015625,-83.49609375,28.3203125
9.75390625,36.1328125,9.765625,-65.4296875,29.296875
9.7578125,39.0625,3.90625,-53.7109375,3.41796875
9.76171875,34.66796875,-0.9765625,-55.17578125,17.578125
9.765625,31.73828125,-7.8125,-59.5703125,3.90625
9.76953125,10.7421875,-14.16015625,-53.7109375,-16.6015625
9.7734375,18.06640625,-16.6015625,-39.55078125,-17.578125
9.77734375,24.90234375,-10.25390625,-41.015625,-23.92578125
9.78125,19.53125,-6.34765625,-50.29296875,-13.671875
9.78515625,27.83203125,-12.6953125,-43.45703125,10.7421875
9.7890625,23.4375,-12.6953125,-45.41015625,10.7421875
9.79296875,17.08984375,-3.90625,-48.828125,2.9296875
9.796875,19.53125,-4.8828125,-45.8984375,7.32421875
9.80078125,18.5546875,-6.8359375,-46.38671875,1.953125
9.8046875,17.578125,-6.8359375,-44.43359375,-10.25390625
9.80859375,18.06640625,-12.20703125,-44.921875,-8.30078125
9.8125,21.97265625,-14.6484375,-42.48046875,9.765625
9.81640625,27.83203125,-4.8828125,-57.12890625,18.06640625
9.8203125,25.390625,3.41796875,-69.3359375,5.37109375
9.82421875,20.01953125,-8.30078125,-51.26953125,16.11328125
9.828125,43.9453125,-12.6953125,-43.45703125,25.87890625
9.83203125,29.78515625,-9.765625,-29.296875,-3.41796875
9.8359375,-0.48828125,-18.06640625,-20.5078125,-8.30078125
9.83984375,2.9296875,-17.578125,-18.06640625,-7.8125
9.84375,0.9765625,-9.27734375,-17.578125,-3.90625
9.84765625,16.11328125,-17.578125,-16.6015625,31.25
9.8515625,33.203125,-28.3203125,-12.6953125,12.20703125
9.85546875,17.08984375,-20.99609375,-21.484375,-5.859375
9.859375,13.18359375,-19.53125,-22.4609375,20.5078125
9.86328125,17.08984375,-16.11328125,-22.4609375,15.13671875
9.8671875,11.71875,-9.765625,-32.71484375,-9.27734375
9.87109375,0.9765625,-12.20703125,-45.41015625,-17.08984375
9.875,8.30078125,-8.7890625,-38.57421875,-2.9296875
9.87890625,11.23046875,-2.44140625,-17.08984375,-9.27734375
9.8828125,-9.27734375,-5.37109375,-13.18359375,-3.90625
9.88671875,-9.27734375,-12.20703125,-18.5546875,2.9296875
9.890625,-0.48828125,-30.2734375,-18.5546875,0.9765625
9.89453125,-8.7890625,-33.69140625,-26.3671875,4.39453125
9.8984375,-6.8359375,-12.6953125,-24.90234375,3.90625
9.90234375,1.953125,-6.34765625,-12.6953125,2.9296875
9.90625,1.46484375,-5.859375,-23.4375,13.18359375
9.91015625,7.32421875,-11.23046875,-25.87890625,13.18359375
9.9140625,-2.9296875,-15.625,-13.671875,-15.625
9.91796875,-21.97265625,-10.7421875,-16.11328125,-38.57421875
9.921875,-21.97265625,-8.30078125,-10.7421875,-32.2265625
9.92578125,-11.23046875,-9.765625,-6.34765625,-2.44140625
9.9296875,-13.18359375,-25.87890625,-8.7890625,17.578125
9.93359375,-18.5546875,-31.25,-9.765625,18.06640625
9.9375,-16.6015625,-21.484375,-11.71875,-6.8359375
9.94140625,-14.16015625,-23.4375,-15.13671875,-26.85546875
9.9453125,-11.23046875,-22.4609375,-19.53125,-15.13671875
9.94921875,-27.83203125,-16.11328125,-26.85546875,-13.671875
9.953125,-31.73828125,-20.99609375,-23.92578125,0.9765625
9.95703125,-14.6484375,-25.390625,-17.08984375,6.8359375
9.9609375,-7.32421875,-26.85546875,-21.484375,-20.01953125
9.96484375,-4.39453125,-24.90234375,-28.3203125,-12.20703125
9.96875,-0.9765625,-18.06640625,-28.3203125,-6.8359375
9.97265625,-0.9765625,-17.08984375,-19.53125,-8.7890625
9.9765625,-3.41796875,-20.99609375,-23.4375,-5.859375
9.98046875,8.7890625,-14.16015625,-47.8515625,-3.90625
9.984375,37.109375,-4.39453125,-38.57421875,8.7890625
9.98828125,12.6953125,-18.06640625,-12.6953125,-1.953125
9.9921875,-14.6484375,-25.87890625,-12.6953125,-17.08984375
9.99609375,-11.71875,-20.5078125,-14.16015625,-5.37109375
10.0,-37.109375,-20.5078125,-11.23046875,-9.765625
10.00390625,-26.3671875,-18.06640625,-12.20703125,-3.41796875
10.0078125,12.20703125,-9.765625,-2.44140625,17.08984375
10.01171875,0.9765625,-23.4375,0.0,5.859375
10.015625,-15.13671875,-30.76171875,-2.44140625,-7.32421875
10.01953125,-14.16015625,-18.5546875,-0.48828125,-4.8828125
10.0234375,-8.7890625,-24.90234375,2.44140625,2.9296875
10.02734375,-4.39453125,-31.25,-0.9765625,17.578125
10.03125,4.39453125,-22.4609375,-6.8359375,15.13671875
10.03515625,14.6484375,-34.66796875,-8.30078125,-4.8828125
10.0390625,17.578125,-34.1796875,-14.6484375,-5.859375
10.04296875,14.16015625,-19.04296875,-21.484375,-6.8359375
10.046875,1.953125,-23.4375,-36.1328125,-4.8828125
10.05078125,-6.34765625,-11.23046875,-40.0390625,7.32421875
10.0546875,-2.9296875,-6.34765625,-18.06640625,-0.48828125
10.05859375,-1.953125,-9.765625,-16.11328125,-21.484375
10.0625,-7.32421875,-9.765625,-24.4140625,-19.04296875
10.06640625,-8.7890625,-23.92578125,-18.06640625,-5.859375
10.0703125,-5.859375,-17.578125,-15.13671875,-6.34765625
10.07421875,-8.7890625,-12.20703125,-16.6015625,-30.76171875
10.078125,0.0,-17.578125,-12.6953125,-9.765625
10.08203125,5.37109375,-15.13671875,-12.6953125,3.41796875
10.0859375,-8.30078125,-14.6484375,-14.6484375,-14.6484375
10.08984375,-9.765625,-12.6953125,-16.11328125,-4.8828125
10.09375,-3.90625,-8.7890625,-29.296875,-3.41796875
10.09765625,-5.37109375,-9.27734375,-39.0625,-18.5546875
10.1015625,-7.32421875,-25.390625,-15.625,-31.73828125
10.10546875,-1.46484375,-44.921875,-0.48828125,-24.90234375
10.109375,-10.7421875,-38.0859375,-12.6953125,-2.9296875
10.11328125,-8.7890625,-19.04296875,-16.6015625,1.46484375
10.1171875,14.6484375,-17.578125,-10.25390625,4.39453125
10.12109375,11.23046875,-27.83203125,-10.7421875,0.0
10.125,-26.3671875,-26.85546875,-23.4375,-17.08984375
10.12890625,-41.50390625,-15.13671875,-31.73828125,-24.4140625
10.1328125,-17.578125,-3.41796875,-27.83203125,-6.34765625
10.13671875,-1.953125,-4.39453125,-24.4140625,-9.27734375
10.140625,-5.37109375,-16.6015625,-32.2265625,-25.390625
10.14453125,-10.7421875,-15.13671875,-30.2734375,-0.48828125
10.1484375,-5.859375,-12.20703125,-18.5546875,10.7421875
10.15234375,-10.7421875,-12.6953125,-17.578125,-18.06640625
10.15625,-21.484375,-17.08984375,-17.08984375,-5.37109375
10.16015625,-13.18359375,-22.94921875,-13.671875,22.4609375
10.1640625,-11.23046875,-15.625,-20.01953125,6.8359375
10.16796875,-12.20703125,-7.32421875,-26.85546875,-14.16015625
10.171875,-12.20703125,-14.6484375,-25.87890625,-26.85546875
10.17578125,-20.99609375,-18.5546875,-22.4609375,3.41796875
10.1796875,-10.25390625,-30.76171875,-16.6015625,19.53125
10.18359375,-4.8828125,-38.57421875,-18.5546875,-6.8359375
10.1875,-22.94921875,-20.5078125,-24.4140625,-19.04296875
10.19140625,-12.20703125,-6.34765625,-20.01953125,-11.23046875
10.1953125,-9.765625,-4.8828125,-20.01953125,-3.90625
10.19921875,-31.73828125,-6.8359375,-33.69140625,-24.4140625
10.203125,-27.34375,-21.97265625,-27.83203125,-41.50390625
10.20703125,-7.8125,-28.80859375,-11.71875,-32.71484375
10.2109375,-12.6953125,-18.06640625,-6.34765625,-20.99609375
10.21484375,-17.578125,-12.6953125,-8.7890625,-9.765625
10.21875,-8.30078125,-15.625,-13.18359375,-8.30078125
10.22265625,-6.8359375,-23.92578125,-12.6953125,-7.8125
10.2265625,3.41796875,-27.83203125,-8.7890625,12.20703125
10.23046875,2.44140625,-21.97265625,-19.53125,1.46484375
10.234375,-20.99609375,-16.6015625,-30.2734375,-21.97265625
10.23828125,-25.390625,-15.13671875,-24.4140625,-23.4375
10.2421875,-15.625,-17.08984375,-21.97265625,-9.27734375
10.24609375,-10.7421875,-27.34375,-19.53125,-3.41796875
10.25,-2.44140625,-36.1328125,-10.25390625,-6.8359375
10.25390625,2.44140625,-35.64453125,-10.7421875,-7.8125
10.2578125,-16.11328125,-23.4375,-20.5078125,-30.2734375
10.26171875,-17.578125,-19.53125,-22.94921875,-21.97265625
10.265625,-28.3203125,-18.06640625,-32.71484375,5.859375
10.26953125,-41.015625,-16.11328125,-43.45703125,-26.85546875
10.2734375,-27.83203125,-20.5078125,-29.296875,-40.0390625
10.27734375,-30.2734375,-22.4609375,-22.94921875,-20.5078125
10.28125,-15.625,-14.6484375,-37.59765625,-12.6953125
10.28515625,14.6484375,-6.8359375,-38.57421875,1.46484375
10.2890625,12.20703125,-18.5546875,-20.01953125,7.32421875
10.29296875,-18.06640625,-31.25,-0.9765625,-20.99609375
10.296875,-25.87890625,-34.1796875,4.39453125,-34.66796875
10.30078125,-22.94921875,-29.296875,-3.90625,-26.85546875
10.3046875,-31.25,-20.99609375,-24.90234375,-27.34375
10.30859375,-24.90234375,-25.87890625,-27.34375,-12.6953125
10.3125,-14.6484375,-25.87890625,-7.8125,-13.671875
10.31640625,-11.23046875,-21.484375,-6.34765625,-25.390625
10.3203125,-8.7890625,-11.71875,-22.94921875,-18.06640625
10.32421875,3.90625,-10.7421875,-25.390625,-8.30078125
10.328125,-2.44140625,-21.484375,-9.27734375,-19.53125
10.33203125,-10.7421875,-20.99609375,-1.953125,-21.97265625
10.3359375,-15.625,-21.484375,-3.41796875,-21.484375
10.33984375,-8.30078125,-24.90234375,-10.7421875,-9.765625
10.34375,-2.44140625,-27.34375,-15.625,10.25390625
10.34765625,-12.20703125,-25.87890625,-20.01953125,9.765625
10.3515625,-24.4140625,-19.04296875,-24.90234375,-2.44140625
10.35546875,-26.85546875,-29.78515625,-24.4140625,-9.765625
10.359375,-10.7421875,-29.296875,-24.90234375,0.0
10.36328125,2.9296875,-17.578125,-26.3671875,4.8828125
10.3671875,-8.7890625,-19.04296875,-24.4140625,-16.6015625
10.37109375,-14.16015625,-16.6015625,-34.66796875,-18.5546875
10.375,1.953125,-13.18359375,-66.89453125,5.37109375
10.37890625,2.9296875,-20.5078125,-45.8984375,13.18359375
10.3828125,-36.1328125,-25.390625,-4.39453125,-19.53125
10.38671875,-57.12890625,-26.85546875,-8.30078125,-59.08203125
10.390625,-46.38671875,-26.85546875,-16.11328125,-57.6171875
10.39453125,-35.15625,-18.5546875,-19.04296875,-15.625
10.3984375,-30.2734375,-23.4375,-22.4609375,-19.53125
10.40234375,-23.4375,-40.52734375,-23.4375,-33.69140625
10.40625,-13.18359375,-42.48046875,-22.94921875,-16.6015625
10.41015625,-16.6015625,-34.66796875,-20.01953125,-20.99609375
10.4140625,-20.01953125,-30.2734375,-20.01953125,-20.99609375
10.41796875,-19.53125,-17.08984375,-18.06640625,-11.71875
10.421875,-11.23046875,-15.625,-14.6484375,-0.9765625
10.42578125,-15.13671875,-26.85546875,-17.578125,-4.8828125
10.4296875,-11.23046875,-31.25,-26.3671875,-8.7890625
10.43359375,-0.48828125,-33.203125,-29.296875,-17.08984375
10.4375,7.32421875,-36.62109375,-25.87890625,-12.20703125
10.44140625,-5.859375,-24.90234375,-29.78515625,0.0
10.4453125,-38.57421875,-20.99609375,-37.59765625,-28.80859375
10.44921875,-37.59765625,-29.296875,-44.43359375,-32.71484375
10.453125,-28.3203125,-25.87890625,-62.98828125,-12.20703125
10.45703125,-22.94921875,-29.78515625,-50.29296875,0.48828125
10.4609375,-20.99609375,-28.80859375,-21.97265625,-16.6015625
10.46484375,-22.94921875,-31.73828125,-17.08984375,-7.8125
10.46875,-18.06640625,-33.203125,-11.71875,7.8125
10.47265625,-22.94921875,-29.78515625,-18.5546875,-5.859375
10.4765625,-15.625,-30.2734375,-25.87890625,-16.6015625
10.48046875,-16.11328125,-31.25,-20.5078125,-16.11328125
10.484375,-27.34375,-40.0390625,-12.20703125,-13.671875
10.48828125,-29.78515625,-30.2734375,-10.7421875,-26.85546875
10.4921875,-35.15625,-15.625,-13.671875,-28.3203125
10.49609375,-37.109375,-25.390625,-17.08984375,-5.37109375
10.5,-25.87890625,-40.52734375,-16.6015625,0.0
10.50390625,-15.13671875,-40.0390625,-19.53125,-11.23046875
10.5078125,-19.04296875,-30.2734375,-25.390625,-9.765625
10.51171875,-23.4375,-31.73828125,-24.4140625,-11.71875
10.515625,-16.11328125,-33.203125,-20.99609375,-5.37109375
10.51953125,-20.01953125,-20.01953125,-13.671875,-9.765625
10.5234375,-17.578125,-17.578125,-9.27734375,11.71875
10.52734375,-16.11328125,-20.5078125,-17.08984375,6.8359375
10.53125,-25.87890625,-5.859375,-23.92578125,-16.11328125
10.53515625,-19.53125,3.90625,-28.3203125,18.5546875
10.5390625,-24.90234375,-12.20703125,-20.5078125,-6.8359375
10.54296875,-9.765625,-30.2734375,-9.27734375,-23.4375
10.546875,10.25390625,-30.2734375,0.48828125,12.20703125
10.55078125,-15.625,-29.78515625,9.27734375,-2.44140625
10.5546875,-47.36328125,-29.296875,17.578125,-23.4375
10.55859375,-46.875,-30.2734375,12.20703125,-30.2734375
10.5625,-34.66796875,-23.92578125,-1.46484375,-29.296875
10.56640625,-26.85546875,-21.484375,-6.8359375,-31.25
10.5703125,-41.50390625,-27.83203125,-1.46484375,-25.87890625
10.57421875,-36.62109375,-34.1796875,3.41796875,-23.92578125
10.578125,-20.01953125,-38.0859375,-2.9296875,-21.97265625
10.58203125,-22.4609375,-24.90234375,-2.44140625,-28.3203125
10.5859375,-23.4375,-20.5078125,-15.13671875,-37.59765625
10.58984375,-39.55078125,-31.25,-23.92578125,-18.06640625
10.59375,-41.50390625,-33.69140625,-5.859375,-2.9296875
10.59765625,-13.18359375,-20.5078125,0.48828125,6.8359375
10.6015625,-5.37109375,-12.6953125,-2.44140625,-8.30078125
10.60546875,-1.953125,-15.13671875,-5.859375,-24.90234375
10.609375,13.18359375,-11.23046875,-26.85546875,-17.08984375
10.61328125,3.90625,-19.04296875,-20.99609375,-5.859375
10.6171875,-0.9765625,-23.92578125,-0.9765625,-19.04296875
10.62109375,-1.953125,-20.01953125,-3.90625,-20.99609375
10.625,3.90625,-29.78515625,-10.7421875,-14.6484375
10.62890625,7.8125,-41.9921875,-12.6953125,-25.390625
10.6328125,-12.6953125,-37.59765625,-14.6484375,-15.13671875
10.63671875,-16.6015625,-22.94921875,-17.08984375,-9.27734375
10.640625,-16.11328125,-16.6015625,-13.18359375,-20.01953125
10.64453125,-8.30078125,-17.08984375,-13.18359375,-17.08984375
10.6484375,-10.7421875,-5.37109375,-18.06640625,-20.99609375
10.65234375,-25.87890625,-6.8359375,-12.6953125,-27.34375
10.65625,-31.73828125,-22.94921875,-5.37109375,-21.484375
10.66015625,-25.87890625,-25.87890625,-10.25390625,-10.7421875
10.6640625,-8.30078125,-22.94921875,-23.92578125,-19.53125
10.66796875,-12.6953125,-27.34375,-22.94921875,-33.203125
10.671875,5.859375,-33.203125,-5.859375,-14.16015625
10.67578125,21.97265625,-29.78515625,-4.39453125,17.578125
10.6796875,-11.71875,-24.4140625,-14.16015625,0.9765625
10.68359375,-41.50390625,-17.578125,-28.80859375,-29.78515625
10.6875,-42.48046875,-10.25390625,-36.1328125,-37.109375
10.69140625,-29.296875,-5.37109375,-28.80859375,-35.64453125
10.6953125,-16.11328125,-6.34765625,-26.85546875,-30.2734375
10.69921875,-22.94921875,-17.578125,-24.4140625,-35.64453125
10.703125,-18.06640625,-13.671875,-28.80859375,-41.50390625
10.70703125,-3.41796875,-7.8125,-41.015625,-32.71484375
10.7109375,-6.34765625,-13.18359375,-46.875,-35.15625
10.71484375,-17.08984375,-20.99609375,-37.59765625,-34.66796875
10.71875,-23.92578125,-30.2734375,-22.4609375,1.46484375
10.72265625,-20.5078125,-42.48046875,-17.578125,8.7890625
10.7265625,-16.6015625,-41.015625,-24.90234375,-23.92578125
10.73046875,-19.53125,-28.80859375,-29.78515625,-36.1328125
10.734375,-22.94921875,-26.3671875,-41.015625,-34.66796875
10.73828125,-18.5546875,-31.25,-60.546875,-33.203125
10.7421875,-11.23046875,-17.08984375,-49.8046875,-32.71484375
10.74609375,-14.6484375,-6.34765625,-32.2265625,-41.9921875
10.75,-10.7421875,-12.20703125,-29.296875,-37.59765625
10.75390625,-4.8828125,-12.20703125,-44.921875,-25.87890625
10.7578125,-13.18359375,-10.25390625,-44.43359375,-18.5546875
10.76171875,-22.4609375,-15.625,-24.90234375,-33.203125
10.765625,-18.06640625,-29.296875,-26.85546875,-35.64453125
10.76953125,-13.18359375,-27.83203125,-24.90234375,-14.6484375
10.7734375,-19.04296875,-21.97265625,-29.296875,-31.25
10.77734375,-12.6953125,-17.08984375,-31.73828125,-32.71484375
10.78125,-12.20703125,-12.20703125,-27.34375,-13.671875
10.78515625,-16.6015625,-14.6484375,-28.3203125,-13.18359375
10.7890625,5.37109375,-15.625,-23.4375,-9.765625
10.79296875,6.8359375,-26.85546875,-21.97265625,5.37109375
10.796875,-7.32421875,-39.55078125,-16.6015625,-7.8125
10.80078125,-18.06640625,-31.25,-11.23046875,-20.5078125
10.8046875,-28.3203125,-10.7421875,-24.90234375,-18.06640625
10.80859375,-31.73828125,2.44140625,-30.76171875,-27.83203125
10.8125,-14.6484375,1.46484375,-23.4375,-6.8359375
10.81640625,3.90625,3.90625,-29.78515625,17.08984375
10.8203125,-2.44140625,3.41796875,-30.76171875,11.23046875
10.82421875,-16.6015625,-7.8125,-5.37109375,-5.859375
10.828125,-20.5078125,-18.06640625,3.90625,8.7890625
10.83203125,-18.06640625,-18.06640625,-0.9765625,20.99609375
10.8359375,-5.859375,-20.01953125,-4.39453125,14.16015625
10.83984375,-10.25390625,-26.3671875,-8.30078125,-17.08984375
10.84375,-24.90234375,-38.57421875,-13.18359375,-35.15625
10.84765625,-20.01953125,-41.50390625,-16.6015625,-16.11328125
10.8515625,-25.87890625,-30.2734375,-11.71875,-8.7890625
10.85546875,-16.11328125,-32.71484375,-17.08984375,-8.30078125
10.859375,4.39453125,-29.296875,-23.4375,0.9765625
10.86328125,1.46484375,-20.01953125,-8.7890625,7.32421875
10.8671875,-8.7890625,-23.92578125,0.9765625,3.90625
10.87109375,-8.7890625,-12.20703125,-5.37109375,6.34765625
10.875,-14.6484375,-13.18359375,-7.32421875,1.46484375
10.87890625,-12.6953125,-26.85546875,-20.01953125,-1.46484375
10.8828125,13.18359375,-32.71484375,-17.578125,17.578125
10.88671875,-0.9765625,-42.96875,-2.44140625,-1.953125
10.890625,-32.2265625,-34.1796875,-2.44140625,-19.53125
10.89453125,-19.04296875,-17.08984375,0.0,-13.18359375
10.8984375,-13.671875,3.41796875,-8.30078125,-18.06640625
10.90234375,-25.390625,4.39453125,-19.04296875,-17.08984375
10.90625,-24.90234375,-14.16015625,-17.578125,-17.08984375
10.91015625,-15.625,-23.92578125,-19.04296875,-20.01953125
10.9140625,-8.7890625,-29.78515625,-12.6953125,-13.18359375
10.91796875,-15.13671875,-24.4140625,-15.13671875,-8.30078125
10.921875,-29.78515625,-12.20703125,-26.3671875,-3.41796875
10.92578125,-26.3671875,-15.13671875,-26.85546875,-0.9765625
10.9296875,-10.7421875,-25.87890625,-21.97265625,-24.4140625
10.93359375,2.9296875,-34.1796875,-19.53125,-20.01953125
10.9375,-3.90625,-33.203125,-27.34375,-3.90625
10.94140625,-20.99609375,-22.4609375,-26.85546875,-20.01953125
10.9453125,-30.2734375,-15.625,-25.390625,-20.01953125
10.94921875,-32.2265625,-11.71875,-31.25,-11.23046875
10.953125,-33.203125,-10.7421875,-25.390625,-14.6484375
10.95703125,-33.203125,-14.16015625,-23.92578125,-11.23046875
10.9609375,-25.390625,-27.83203125,-35.64453125,-7.8125
10.96484375,-7.32421875,-19.04296875,-42.48046875,6.34765625
10.96875,1.953125,-5.37109375,-41.015625,15.625
10.97265625,-32.71484375,-15.625,-36.62109375,-28.80859375
10.9765625,-50.29296875,-23.4375,-15.13671875,-44.921875
10.98046875,-40.0390625,-27.34375,-4.8828125,-36.1328125
10.984375,-29.78515625,-25.390625,-22.4609375,-25.87890625
10.98828125,-12.20703125,-23.4375,-22.4609375,-10.7421875
10.9921875,-12.20703125,-24.90234375,-8.30078125,-12.20703125
10.99609375,-19.53125,-31.73828125,-7.8125,0.0
11.0,-29.78515625,-34.1796875,-12.6953125,-2.44140625
11.00390625,-43.9453125,-28.80859375,-35.15625,-25.87890625
11.0078125,-39.0625,-24.90234375,-32.2265625,-31.73828125
11.01171875,-28.80859375,-24.90234375,-18.5546875,-31.73828125
11.015625,-28.80859375,-25.87890625,-22.94921875,-20.99609375
11.01953125,-29.296875,-28.80859375,-21.97265625,-9.27734375
11.0234375,-9.765625,-35.15625,-20.99609375,-20.99609375
11.02734375,-7.32421875,-37.59765625,-22.94921875,-23.4375
11.03125,-20.5078125,-24.90234375,-22.4609375,-15.625
11.03515625,-16.11328125,-17.08984375,-25.87890625,-13.18359375
11.0390625,-16.6015625,-15.625,-23.4375,-18.06640625
11.04296875,-14.16015625,-10.25390625,-26.3671875,-18.5546875
11.046875,-12.20703125,-23.92578125,-23.4375,-2.44140625
11.05078125,-17.08984375,-39.55078125,-16.6015625,-7.32421875
11.0546875,-21.97265625,-31.25,-15.13671875,-21.484375
11.05859375,-6.34765625,-19.04296875,-17.08984375,-20.01953125
11.0625,-0.48828125,-6.34765625,-37.59765625,-7.32421875
11.06640625,-20.99609375,-8.30078125,-26.3671875,-9.27734375
11.0703125,-16.11328125,-18.5546875,-4.8828125,-19.04296875
11.07421875,-10.7421875,-24.90234375,-13.671875,-25.390625
11.078125,-18.06640625,-36.62109375,-9.27734375,-21.97265625
11.08203125,-17.578125,-39.0625,-4.8828125,-20.99609375
11.0859375,-25.87890625,-28.3203125,-7.32421875,-29.78515625
11.08984375,-25.390625,-28.3203125,-6.34765625,-8.7890625
11.09375,-8.30078125,-34.66796875,-11.23046875,7.32421875
11.09765625,-14.16015625,-26.85546875,-6.34765625,10.7421875
11.1015625,-20.01953125,-22.4609375,-1.953125,-0.9765625
11.10546875,-12.6953125,-25.390625,-15.625,-8.30078125
11.109375,-8.7890625,-10.7421875,-26.3671875,-6.8359375
11.11328125,-27.83203125,-0.9765625,-14.16015625,0.9765625
11.1171875,-40.0390625,-11.23046875,-8.7890625,6.34765625
11.12109375,-13.18359375,-22.4609375,-1.46484375,-24.4140625
11.125,-9.765625,-28.3203125,-20.99609375,-24.4140625
11.12890625,-15.625,-25.390625,-29.296875,-11.23046875
11.1328125,-22.94921875,-24.4140625,1.46484375,-15.13671875
11.13671875,-39.0625,-24.4140625,7.32421875,-35.15625
11.140625,-17.08984375,-12.20703125,-4.8828125,-34.1796875
11.14453125,10.7421875,-8.7890625,-5.859375,5.859375
11.1484375,-9.27734375,-25.390625,4.39453125,4.8828125
11.15234375,-27.34375,-33.69140625,3.41796875,-25.390625
11.15625,-6.34765625,-27.34375,8.30078125,-13.18359375
11.16015625,-8.7890625,-29.296875,14.16015625,-5.859375
11.1640625,-17.08984375,-30.2734375,9.27734375,-15.13671875
11.16796875,-47.36328125,-28.80859375,2.9296875,-26.85546875
11.171875,-53.22265625,-39.55078125,4.39453125,-18.06640625
11.17578125,-28.80859375,-44.43359375,1.953125,-6.34765625
11.1796875,-34.1796875,-43.9453125,1.953125,-16.6015625
11.18359375,-24.4140625,-42.96875,8.7890625,-12.6953125
11.1875,-17.578125,-35.64453125,16.6015625,-5.37109375
11.19140625,-27.34375,-30.2734375,20.01953125,0.9765625
11.1953125,-31.25,-25.390625,-3.90625,-21.484375
11.19921875,-18.06640625,-20.99609375,-17.578125,-33.69140625
11.203125,-23.92578125,-23.4375,5.859375,-10.25390625
11.20703125,-28.80859375,-31.73828125,17.578125,-12.20703125
11.2109375,-28.3203125,-26.85546875,12.6953125,-5.859375
11.21484375,-18.5546875,-28.80859375,8.7890625,21.97265625
11.21875,-18.5546875,-46.875,6.8359375,20.01953125
11.22265625,-16.6015625,-39.0625,1.953125,7.32421875
11.2265625,-15.13671875,-26.85546875,11.71875,-1.46484375
11.23046875,-20.01953125,-35.64453125,15.625,-8.7890625
11.234375,-32.71484375,-37.109375,7.8125,-30.2734375
11.23828125,-44.43359375,-24.90234375,6.34765625,-34.1796875
11.2421875,-28.3203125,-19.04296875,4.8828125,-18.5546875
11.24609375,-6.34765625,-25.87890625,2.44140625,-9.27734375
11.25,-14.6484375,-30.2734375,4.39453125,-15.625
11.25390625,-19.53125,-33.203125,-9.27734375,-16.6015625
11.2578125,-14.6484375,-34.1796875,-19.53125,-2.9296875
11.26171875,-5.859375,-23.92578125,0.0,3.41796875
11.265625,-6.34765625,-14.6484375,6.8359375,10.7421875
11.26953125,-26.3671875,-17.08984375,-9.27734375,6.34765625
11.2734375,-21.484375,-17.08984375,-11.71875,-19.04296875
11.27734375,-2.9296875,-13.18359375,3.90625,-39.0625
11.28125,-3.90625,-13.18359375,-9.27734375,-30.76171875
11.28515625,-22.94921875,-24.90234375,-17.578125,-20.99609375
11.2890625,-35.64453125,-31.25,2.9296875,-24.4140625
11.29296875,-29.78515625,-26.85546875,3.90625,-30.2734375
11.296875,-25.87890625,-30.2734375,-7.8125,-12.20703125
11.30078125,-21.484375,-40.0390625,-8.30078125,-12.20703125
11.3046875,-27.34375,-37.59765625,-6.34765625,-14.6484375
11.30859375,-11.71875,-35.64453125,-8.30078125,-18.5546875
11.3125,19.53125,-54.6875,-4.39453125,-15.625
11.31640625,-1.46484375,-41.50390625,6.34765625,-13.671875
11.3203125,-31.73828125,-13.18359375,2.9296875,-29.296875
11.32421875,-29.78515625,-5.859375,-12.6953125,-12.6953125
11.328125,-11.71875,2.44140625,-24.90234375,-2.44140625
11.33203125,-12.20703125,-2.44140625,-21.484375,-22.4609375
11.3359375,-19.53125,-23.4375,-1.953125,-46.875
11.33984375,-9.765625,-35.64453125,5.37109375,-48.33984375
11.34375,-12.6953125,-29.296875,4.8828125,-34.1796875
11.34765625,-11.71875,-27.34375,3.90625,-1.46484375
11.3515625,11.71875,-39.0625,2.9296875,7.32421875
11.35546875,4.39453125,-34.1796875,1.953125,-5.37109375
11.359375,-27.34375,-22.94921875,-16.6015625,-20.99609375
11.36328125,-30.76171875,-20.5078125,-42.48046875,-19.04296875
11.3671875,-20.5078125,-18.06640625,-11.23046875,-7.32421875
11.37109375,-11.71875,-16.6015625,28.3203125,4.39453125
11.375,21.484375,-8.30078125,21.484375,31.73828125
11.37890625,-11.23046875,-10.7421875,1.46484375,-11.71875
11.3828125,-64.94140625,-16.11328125,-5.859375,-70.80078125
11.38671875,-58.10546875,-11.71875,-3.90625,-62.01171875
11.390625,-51.26953125,-23.4375,-15.625,-63.96484375
11.39453125,-23.4375,-39.55078125,-14.16015625,-52.24609375
11.3984375,-36.1328125,-42.48046875,-1.46484375,-70.3125
11.40234375,-117.1875,-33.69140625,-24.4140625,-138.671875
11.40625,-129.39453125,-17.578125,-38.0859375,-144.53125
11.41015625,-94.23828125,-9.765625,-41.50390625,-121.09375
11.4140625,-88.8671875,-16.6015625,-51.7578125,-116.2109375
11.41796875,-88.37890625,-36.62109375,-59.08203125,-134.765625
11.421875,-99.12109375,-35.15625,-56.15234375,-126.46484375
11.42578125,-107.91015625,-13.671875,-49.31640625,-117.1875
11.4296875,-81.0546875,-16.6015625,-45.8984375,-99.12109375
11.43359375,-70.80078125,-21.97265625,-43.9453125,-93.26171875
11.4375,-88.37890625,-18.5546875,-50.78125,-99.12109375
11.44140625,-78.61328125,-16.11328125,-41.015625,-58.59375
11.4453125,-72.265625,-18.5546875,-54.6875,-59.5703125
11.44921875,-65.91796875,-33.203125,-65.91796875,-84.47265625
11.453125,-50.78125,-33.69140625,-37.59765625,-73.73046875
11.45703125,-59.08203125,-26.85546875,-30.2734375,-69.82421875
11.4609375,-54.19921875,-19.04296875,-23.92578125,-54.6875
11.46484375,-50.29296875,-9.765625,-27.34375,-53.7109375
11.46875,-50.78125,-9.765625,-37.109375,-60.05859375
11.47265625,-40.52734375,-13.18359375,-34.66796875,-48.828125
11.4765625,-30.2734375,-19.53125,-39.0625,-41.50390625
11.48046875,-21.484375,-19.53125,-46.38671875,-42.48046875
11.484375,-30.76171875,-12.6953125,-40.52734375,-51.7578125
11.48828125,-27.34375,-19.04296875,-32.71484375,-21.97265625
11.4921875,-21.484375,-38.57421875,-31.25,-23.4375
11.49609375,-29.296875,-30.76171875,-27.83203125,-69.3359375
11.5,-14.6484375,-0.9765625,-39.55078125,-37.109375
11.50390625,-22.94921875,1.953125,-46.38671875,-19.04296875
11.5078125,-32.71484375,-12.6953125,-24.90234375,-22.94921875
11.51171875,0.9765625,-13.671875,-32.71484375,5.37109375
11.515625,2.44140625,-5.859375,-32.71484375,4.8828125
11.51953125,-8.7890625,-11.71875,-11.23046875,-34.66796875
11.5234375,-7.8125,-28.80859375,-16.6015625,-32.2265625
11.52734375,-9.27734375,-34.66796875,-18.06640625,-5.859375
11.53125,3.41796875,-26.3671875,-15.13671875,-6.8359375
11.53515625,-2.9296875,-20.99609375,-25.390625,-29.296875
11.5390625,-10.7421875,-12.6953125,-33.69140625,-34.66796875
11.54296875,-20.01953125,3.90625,-39.0625,-16.11328125
11.546875,-29.78515625,-4.39453125,-46.875,-34.66796875
11.55078125,-25.87890625,-26.3671875,-40.0390625,-44.921875
11.5546875,-26.3671875,-16.11328125,-38.0859375,-24.4140625
11.55859375,-14.6484375,-9.27734375,-37.59765625,-22.4609375
11.5625,-1.46484375,-26.3671875,-25.390625,-16.6015625
11.56640625,-11.23046875,-29.78515625,-32.71484375,-19.53125
11.5703125,-18.06640625,-18.06640625,-25.390625,-22.94921875
11.57421875,-17.578125,-23.92578125,-11.23046875,-23.92578125
11.578125,-15.625,-26.3671875,-11.23046875,-29.296875
11.58203125,-12.6953125,-9.765625,-12.6953125,-24.4140625
11.5859375,-29.296875,-4.8828125,-33.203125,-44.921875
11.58984375,-35.15625,-13.18359375,-38.57421875,-41.9921875
11.59375,-6.34765625,-26.3671875,-12.20703125,-14.6484375
11.59765625,-7.8125,-29.296875,-6.34765625,-16.6015625
11.6015625,-20.01953125,-31.73828125,-8.7890625,-20.5078125
11.60546875,-14.6484375,-30.2734375,-7.32421875,-8.7890625
11.609375,-20.99609375,-16.11328125,-14.6484375,-17.578125
11.61328125,-19.53125,-14.16015625,-20.99609375,-29.296875
11.6171875,-10.7421875,-18.5546875,-24.4140625,-14.6484375
11.62109375,-24.4140625,-15.13671875,-26.3671875,-24.90234375
11.625,-41.015625,-22.4609375,-12.20703125,-25.87890625
11.62890625,-4.8828125,-29.78515625,-8.7890625,-18.5546875
11.6328125,41.015625,-28.80859375,-31.25,6.34765625
11.63671875,22.94921875,-31.25,-17.578125,21.484375
11.640625,-34.1796875,-26.85546875,13.671875,-25.390625
11.64453125,-56.15234375,-13.671875,-2.44140625,-46.38671875
11.6484375,-44.921875,-11.23046875,-15.625,-39.0625
11.65234375,-50.29296875,-21.97265625,-0.9765625,-10.25390625
11.65625,-52.24609375,-21.484375,6.34765625,-6.34765625
11.66015625,-48.828125,-22.94921875,7.32421875,-29.296875
11.6640625,-42.48046875,-29.296875,2.9296875,-24.90234375
11.66796875,-37.59765625,-35.64453125,0.9765625,-24.4140625
11.671875,-21.97265625,-42.48046875,3.90625,-26.85546875
11.67578125,-19.04296875,-41.50390625,1.46484375,-29.296875
11.6796875,-36.62109375,-37.109375,-4.39453125,-33.203125
11.68359375,-36.62109375,-23.4375,-29.296875,-22.94921875
11.6875,-25.87890625,-8.7890625,-23.92578125,-13.18359375
11.69140625,-23.92578125,-14.6484375,4.39453125,-17.578125
11.6953125,-20.99609375,-30.76171875,5.859375,-24.90234375
11.69921875,-25.87890625,-31.25,0.9765625,-20.01953125
11.703125,-29.296875,-26.85546875,2.9296875,-22.94921875
11.70703125,-29.78515625,-35.15625,7.8125,-18.5546875
11.7109375,-29.78515625,-39.0625,9.27734375,-18.5546875
11.71484375,-26.85546875,-29.78515625,9.765625,-27.34375
11.71875,-33.69140625,-26.85546875,7.8125,-30.2734375
11.72265625,-41.9921875,-18.06640625,-16.11328125,-28.3203125
11.7265625,-40.52734375,-13.671875,-26.3671875,-22.94921875
11.73046875,-28.80859375,-24.4140625,-4.8828125,-7.32421875
11.734375,-18.5546875,-28.3203125,8.30078125,5.37109375
11.73828125,9.27734375,-15.625,-2.44140625,9.27734375
11.7421875,8.30078125,-3.41796875,-15.13671875,17.08984375
11.74609375,-41.015625,-21.97265625,-9.765625,-20.01953125
11.75,-43.45703125,-28.80859375,-6.8359375,-49.8046875
11.75390625,-23.4375,-20.01953125,-2.44140625,-38.0859375
11.7578125,-26.3671875,-19.04296875,-13.671875,-39.0625
11.76171875,-35.15625,-12.6953125,-30.76171875,-29.78515625
11.765625,-35.64453125,-13.18359375,-19.04296875,-15.625
11.76953125,-23.4375,-20.01953125,-8.7890625,-29.78515625
11.7734375,-17.578125,-21.484375,-12.20703125,-38.57421875
11.77734375,-25.390625,-28.3203125,-7.8125,-33.69140625
11.78125,-28.3203125,-31.73828125,-15.13671875,-30.2734375
11.78515625,-23.4375,-24.90234375,-27.34375,-19.53125
11.7890625,-19.53125,-21.484375,-28.3203125,-6.8359375
11.79296875,-21.484375,-16.6015625,-40.0390625,-21.484375
11.796875,-48.828125,-5.37109375,-31.73828125,-51.26953125
11.80078125,-63.96484375,-1.953125,-14.6484375,-60.05859375
11.8046875,-48.33984375,-2.44140625,-20.5078125,-63.96484375
11.80859375,-17.08984375,-2.9296875,-20.5078125,-60.05859375
11.8125,-13.671875,-10.25390625,-19.04296875,-32.71484375
11.81640625,-19.04296875,-14.16015625,-23.92578125,-17.578125
11.8203125,-21.97265625,-8.7890625,-30.76171875,-40.0390625
11.82421875,-35.64453125,-8.7890625,-29.78515625,-49.8046875
11.828125,-34.1796875,-22.4609375,-29.78515625,-26.85546875
11.83203125,-26.3671875,-27.83203125,-31.73828125,-6.8359375
11.8359375,-41.50390625,-11.23046875,-32.2265625,-34.66796875
11.83984375,-33.203125,4.8828125,-42.48046875,-20.99609375
11.84375,-10.7421875,-0.48828125,-50.78125,-13.18359375
11.84765625,-21.97265625,-14.16015625,-37.59765625,-33.203125
11.8515625,-30.2734375,-20.99609375,-23.4375,-36.62109375
11.85546875,-23.92578125,-21.97265625,-24.90234375,-53.22265625
11.859375,-14.6484375,-10.7421875,-22.4609375,-37.109375
11.86328125,-14.6484375,-13.671875,-29.78515625,-39.0625
11.8671875,-18.5546875,-26.3671875,-38.57421875,-46.38671875
11.87109375,-24.4140625,-22.94921875,-33.203125,-35.64453125
11.875,-23.92578125,-21.484375,-38.57421875,-43.45703125
11.87890625,-8.30078125,-30.76171875,-40.0390625,-44.921875
11.8828125,-4.8828125,-29.78515625,-42.96875,-39.0625
11.88671875,-20.5078125,-19.04296875,-58.59375,-36.1328125
11.890625,-25.390625,-20.01953125,-55.17578125,-39.55078125
11.89453125,-15.13671875,-25.87890625,-42.96875,-31.25
11.8984375,-22.94921875,-17.578125,-33.69140625,-20.01953125
11.90234375,-19.53125,-8.7890625,-17.578125,-12.6953125
11.90625,-6.34765625,-19.04296875,-26.85546875,5.37109375
11.91015625,-5.37109375,-16.6015625,-54.19921875,9.765625
11.9140625,-6.34765625,-13.671875,-44.921875,-13.671875
11.91796875,-25.87890625,-22.4609375,-24.90234375,-24.90234375
11.921875,-41.9921875,-25.390625,-25.87890625,-8.30078125
11.92578125,-44.921875,-18.5546875,-30.76171875,-12.6953125
11.9296875,-41.015625,-10.25390625,-33.203125,-38.0859375
11.93359375,-18.06640625,-10.25390625,-44.921875,-38.0859375
11.9375,-6.34765625,-29.296875,-40.0390625,-24.4140625
11.94140625,3.41796875,-32.71484375,-21.484375,-12.20703125
11.9453125,1.46484375,-13.671875,-27.83203125,-7.8125
11.94921875,-9.765625,-9.765625,-45.41015625,-14.16015625
11.953125,-17.08984375,-20.01953125,-39.55078125,-27.83203125
11.95703125,-20.5078125,-32.2265625,-24.4140625,-40.0390625
11.9609375,-11.71875,-35.64453125,-13.18359375,-22.94921875
11.96484375,-8.7890625,-21.97265625,-12.20703125,-4.39453125
11.96875,-18.5546875,-11.23046875,-15.625,-7.8125
11.97265625,-17.578125,-10.7421875,-20.01953125,-25.87890625
11.9765625,-16.6015625,-15.13671875,-25.390625,-31.73828125
11.98046875,-10.25390625,-20.01953125,-32.2265625,-15.625
11.984375,-15.13671875,-21.97265625,-26.3671875,-8.7890625
11.98828125,-17.578125,-7.32421875,-26.85546875,-4.8828125
11.9921875,-1.953125,-2.44140625,-43.9453125,-1.953125
11.99609375,-13.671875,-20.5078125,-36.1328125,-17.08984375
12.0,-21.97265625,-18.06640625,-15.625,-28.80859375
12.00390625,-4.8828125,-24.90234375,-10.7421875,-8.7890625
12.0078125,-13.18359375,-40.52734375,-15.13671875,8.30078125
12.01171875,-33.203125,-33.69140625,-10.25390625,-5.37109375
12.015625,-17.08984375,-7.8125,-21.97265625,-13.18359375
12.01953125,-28.3203125,-3.41796875,-39.55078125,-19.04296875
12.0234375,-51.7578125,-21.484375,-38.57421875,-36.62109375
12.02734375,-40.0390625,-27.83203125,-27.83203125,-32.71484375
12.03125,-30.76171875,-19.04296875,-19.53125,-28.3203125
12.03515625,-38.0859375,-12.6953125,-24.4140625,-29.296875
12.0390625,-12.20703125,-17.578125,-21.97265625,-38.57421875
12.04296875,0.48828125,-20.01953125,-19.04296875,-27.34375
12.046875,-25.87890625,-14.6484375,-29.78515625,-5.37109375
12.05078125,-30.2734375,-10.25390625,-39.0625,-32.2265625
12.0546875,-0.48828125,-9.765625,-48.828125,-23.92578125
12.05859375,25.390625,-2.9296875,-44.43359375,19.04296875
12.0625,-10.25390625,-10.25390625,-18.06640625,-3.90625
12.06640625,-40.0390625,-23.92578125,-9.765625,-31.73828125
12.0703125,-43.45703125,-20.99609375,-6.8359375,-43.45703125
12.07421875,-41.50390625,-20.99609375,-18.06640625,-40.0390625
12.078125,-23.4375,-25.390625,-24.90234375,-8.7890625
12.08203125,-33.69140625,-27.34375,-1.46484375,-7.8125
12.0859375,-45.41015625,-38.57421875,13.671875,-29.78515625
12.08984375,-33.203125,-48.33984375,14.16015625,-27.34375
12.09375,-37.109375,-51.26953125,3.41796875,-7.32421875
12.09765625,-40.0390625,-52.734375,1.953125,-1.953125
12.1015625,-39.55078125,-45.8984375,5.859375,-19.53125
12.10546875,-45.41015625,-42.48046875,9.765625,-33.69140625
12.109375,-44.43359375,-41.50390625,14.6484375,-1.46484375
12.11328125,-34.66796875,-40.0390625,12.6953125,17.08984375
12.1171875,-19.04296875,-46.875,0.9765625,-13.18359375
12.12109375,-20.99609375,-41.015625,-1.46484375,-15.13671875
12.125,-33.69140625,-29.296875,0.48828125,-0.48828125
12.12890625,-29.296875,-19.04296875,0.9765625,-4.8828125
12.1328125,-10.7421875,-17.08984375,0.0,1.953125
12.13671875,4.8828125,-24.4140625,-12.20703125,15.13671875
12.140625,-7.32421875,-32.71484375,-11.23046875,-1.46484375
12.14453125,-30.2734375,-36.1328125,1.953125,-21.484375
12.1484375,-32.71484375,-40.52734375,2.9296875,-18.06640625
12.15234375,-19.53125,-28.80859375,-4.39453125,-33.69140625
12.15625,-17.08984375,-21.97265625,-7.8125,-21.484375
12.16015625,-22.4609375,-36.1328125,-3.90625,-6.8359375
12.1640625,-13.18359375,-42.96875,2.9296875,-10.25390625
12.16796875,-9.765625,-39.55078125,2.44140625,-13.18359375
12.171875,-18.5546875,-28.80859375,-2.44140625,-19.04296875
12.17578125,-19.53125,-16.11328125,0.48828125,-15.625
12.1796875,-18.06640625,-18.5546875,4.8828125,-26.3671875
12.18359375,0.48828125,-20.01953125,-6.8359375,-2.44140625
12.1875,-11.23046875,-20.5078125,-22.94921875,8.30078125
12.19140625,-28.3203125,-27.34375,-10.7421875,-11.23046875
12.1953125,14.6484375,-33.203125,5.37109375,1.953125
12.19921875,5.859375,-27.34375,7.32421875,6.34765625
12.203125,-29.78515625,-13.671875,9.27734375,-7.8125
12.20703125,-17.578125,-14.16015625,12.6953125,-24.90234375
12.2109375,-7.8125,-29.296875,16.6015625,-33.69140625
12.21484375,-9.765625,-35.15625,2.9296875,-11.23046875
12.21875,-19.53125,-23.4375,-20.01953125,-3.41796875
12.22265625,-18.5546875,-6.34765625,-6.34765625,-15.13671875
12.2265625,-17.08984375,0.48828125,2.9296875,-14.6484375
12.23046875,-32.2265625,-12.6953125,7.32421875,-29.78515625
