Timestamp,TP9,AF7,AF8,TP10
124.01171875,28.3203125,-13.18359375,-43.45703125,25.390625
124.015625,40.0390625,-14.16015625,-63.96484375,37.59765625
124.01953125,46.38671875,-38.0859375,-49.31640625,-6.34765625
124.0234375,41.015625,-40.52734375,-31.73828125,14.16015625
124.02734375,37.109375,-7.32421875,-45.8984375,64.453125
124.03125,24.4140625,-2.9296875,-58.10546875,33.203125
124.03515625,12.20703125,-5.37109375,-37.59765625,10.7421875
124.0390625,-17.578125,2.9296875,-19.04296875,27.83203125
124.04296875,-28.3203125,2.44140625,-23.4375,34.66796875
124.046875,-12.20703125,-1.46484375,-26.3671875,10.7421875
124.05078125,9.27734375,-5.37109375,-25.87890625,7.8125
124.0546875,19.04296875,-13.18359375,-24.4140625,28.3203125
124.05859375,11.23046875,-19.53125,-26.3671875,27.83203125
124.0625,9.765625,-19.53125,-29.78515625,2.9296875
124.06640625,6.34765625,-13.18359375,-25.87890625,13.671875
124.0703125,11.23046875,-11.71875,-62.01171875,36.62109375
124.07421875,9.765625,-15.625,-69.3359375,29.78515625
124.078125,2.44140625,-25.87890625,-31.73828125,1.953125
124.08203125,27.34375,-27.83203125,-16.11328125,-24.90234375
124.0859375,10.7421875,-25.390625,-16.6015625,-10.25390625
124.08984375,-11.23046875,-23.4375,-14.6484375,5.859375
124.09375,-7.8125,-10.7421875,-19.53125,19.04296875
124.09765625,-4.39453125,-4.8828125,-50.78125,16.6015625
124.1015625,8.30078125,-13.18359375,-56.640625,-6.34765625
124.10546875,-10.25390625,-16.6015625,-33.203125,-14.6484375
124.109375,-43.45703125,-11.71875,-24.90234375,-26.3671875
124.11328125,-24.90234375,-9.27734375,-39.55078125,-29.296875
124.1171875,-9.765625,-16.6015625,-49.8046875,-21.97265625
124.12109375,-13.671875,-36.1328125,-33.203125,-2.9296875
124.125,17.08984375,-31.25,-20.5078125,9.765625
124.12890625,20.5078125,-11.23046875,-35.15625,5.37109375
124.1328125,-7.32421875,-17.08984375,-36.1328125,19.53125
124.13671875,-12.6953125,-17.08984375,-26.3671875,-2.44140625
124.140625,-24.90234375,-13.18359375,-41.015625,-36.62109375
124.14453125,-32.71484375,-9.27734375,-44.43359375,-25.390625
124.1484375,-26.3671875,-7.8125,-40.0390625,-12.6953125
124.15234375,-17.08984375,-10.7421875,-47.36328125,-26.3671875
124.15625,-14.6484375,-15.625,-38.0859375,-16.11328125
124.16015625,-24.4140625,-26.3671875,-32.71484375,0.0
124.1640625,-12.6953125,-25.390625,-41.50390625,-22.94921875
124.16796875,-13.671875,-15.13671875,-46.38671875,-37.59765625
124.171875,-22.4609375,-16.11328125,-39.0625,-22.4609375
124.17578125,3.41796875,-32.2265625,-39.0625,-5.859375
124.1796875,13.18359375,-48.828125,-46.875,-7.8125
124.18359375,-12.20703125,-39.0625,-55.17578125,-8.7890625
124.1875,-23.4375,-22.4609375,-51.7578125,2.44140625
124.19140625,-11.71875,-18.06640625,-36.62109375,-4.39453125
124.1953125,-15.13671875,-16.11328125,-26.85546875,-5.37109375
124.19921875,6.34765625,-13.18359375,-38.0859375,-19.04296875
124.203125,31.25,-15.625,-35.64453125,-17.08984375
124.20703125,-20.99609375,-19.04296875,-31.25,-20.5078125
124.2109375,-43.9453125,-12.20703125,-61.03515625,-33.203125
124.21484375,-29.296875,-17.08984375,-53.22265625,-21.484375
124.21875,-39.55078125,-24.4140625,-21.484375,-2.44140625
124.22265625,-25.87890625,-22.4609375,-20.5078125,2.44140625
124.2265625,-21.97265625,-22.4609375,-21.97265625,-35.64453125
124.23046875,-24.4140625,-24.4140625,-12.20703125,-54.19921875
124.234375,-22.4609375,-32.2265625,-13.18359375,-42.96875
124.23828125,-20.99609375,-28.80859375,-25.390625,-24.4140625
124.2421875,-17.08984375,-18.06640625,-36.1328125,-9.27734375
124.24609375,-8.7890625,-24.90234375,-36.1328125,-3.90625
124.25,-31.25,-30.2734375,-27.34375,-16.11328125
124.25390625,-46.875,-21.484375,-15.13671875,2.9296875
124.2578125,-2.9296875,-16.6015625,-17.08984375,21.97265625
124.26171875,0.0,-14.6484375,-32.71484375,-5.859375
124.265625,-21.97265625,-8.7890625,-41.9921875,-10.25390625
124.26953125,-10.25390625,-9.765625,-35.64453125,-23.92578125
124.2734375,-8.30078125,-9.765625,-21.97265625,-13.18359375
124.27734375,-11.23046875,-0.48828125,-23.4375,-13.18359375
124.28125,1.46484375,1.953125,-43.9453125,-44.43359375
124.28515625,0.9765625,-16.6015625,-32.71484375,-27.34375
124.2890625,-8.30078125,-25.87890625,-20.99609375,-13.18359375
124.29296875,-24.4140625,-13.18359375,-23.92578125,-22.94921875
124.296875,-20.01953125,-14.6484375,-20.99609375,-24.4140625
124.30078125,-13.18359375,-14.6484375,-12.20703125,-1.46484375
124.3046875,-20.01953125,-5.37109375,-16.6015625,4.39453125
124.30859375,-23.4375,-20.01953125,-31.73828125,-18.06640625
124.3125,-3.41796875,-34.1796875,-33.69140625,-20.01953125
124.31640625,4.39453125,-20.01953125,-29.296875,-13.18359375
124.3203125,-3.41796875,-6.8359375,-19.53125,-14.16015625
124.32421875,10.25390625,-7.32421875,-24.90234375,-5.859375
124.328125,-7.32421875,-17.08984375,-35.15625,-0.48828125
124.33203125,-15.625,-13.671875,-23.92578125,-13.671875
124.3359375,2.44140625,-15.625,-27.34375,-14.16015625
124.33984375,-0.9765625,-24.4140625,-29.78515625,-0.48828125
124.34375,6.8359375,-13.671875,-20.01953125,7.8125
124.34765625,-26.85546875,-3.41796875,-33.203125,1.953125
124.3515625,-47.8515625,-2.9296875,-46.38671875,-39.55078125
124.35546875,-24.90234375,-6.34765625,-34.1796875,-29.296875
124.359375,-9.27734375,-6.8359375,-25.390625,-7.8125
124.36328125,-5.37109375,-9.765625,-34.66796875,-14.16015625
124.3671875,-20.5078125,-17.08984375,-35.64453125,-17.08984375
124.37109375,-19.04296875,-32.71484375,-20.01953125,-12.6953125
124.375,-23.92578125,-36.1328125,-16.6015625,-14.6484375
124.37890625,-17.08984375,-31.73828125,-22.4609375,-25.87890625
124.3828125,13.18359375,-25.87890625,-31.73828125,-28.80859375
124.38671875,-19.04296875,-17.578125,-31.73828125,-29.296875
124.390625,-49.8046875,-14.16015625,-21.484375,-24.90234375
124.39453125,-30.76171875,2.9296875,-24.90234375,-15.13671875
124.3984375,-38.57421875,5.37109375,-22.4609375,-10.25390625
124.40234375,-39.0625,-2.44140625,-19.04296875,-17.08984375
124.40625,-30.76171875,-8.7890625,-23.92578125,-33.69140625
124.41015625,-24.90234375,-8.30078125,-26.85546875,-31.73828125
124.4140625,-3.90625,-2.44140625,-42.96875,15.625
124.41796875,-4.39453125,-20.99609375,-36.62109375,-13.671875
124.421875,-35.15625,-36.1328125,-15.13671875,-62.01171875
124.42578125,-33.203125,-32.2265625,-25.390625,-39.55078125
124.4296875,-20.5078125,-15.625,-42.48046875,-25.390625
124.43359375,-34.66796875,-5.37109375,-40.0390625,-27.34375
124.4375,-29.296875,-1.46484375,-32.2265625,-26.3671875
124.44140625,-21.97265625,0.48828125,-38.57421875,-22.94921875
124.4453125,-22.4609375,-10.25390625,-27.34375,-34.66796875
124.44921875,-19.53125,-15.13671875,-10.25390625,-34.66796875
124.453125,-31.73828125,-7.32421875,-10.25390625,-23.92578125
124.45703125,-20.01953125,-6.8359375,-15.13671875,-4.8828125
124.4609375,-8.30078125,-15.13671875,-22.4609375,12.20703125
124.46484375,-14.6484375,-15.13671875,-33.203125,-1.46484375
124.46875,-12.20703125,-9.765625,-34.66796875,-6.8359375
124.47265625,-20.01953125,-10.7421875,-30.76171875,-5.37109375
124.4765625,-26.85546875,-20.99609375,-26.85546875,-40.52734375
124.48046875,-11.23046875,-38.57421875,-19.04296875,-52.24609375
124.484375,-9.765625,-41.015625,-16.6015625,-27.34375
124.48828125,-6.8359375,-30.2734375,-25.390625,-32.71484375
124.4921875,-12.20703125,-19.53125,-33.203125,-37.109375
124.49609375,-42.48046875,-2.9296875,-40.52734375,-35.15625
124.5,-46.875,5.859375,-32.2265625,-27.34375
124.50390625,-47.36328125,2.44140625,-48.828125,-2.9296875
124.5078125,-37.59765625,-2.44140625,-66.89453125,-6.8359375
124.51171875,-19.53125,-16.6015625,-40.0390625,-21.484375
124.515625,-30.76171875,-22.94921875,-24.90234375,-41.015625
124.51953125,-26.3671875,-16.6015625,-19.04296875,-26.85546875
124.5234375,-12.20703125,-21.484375,-20.5078125,-28.80859375
124.52734375,0.0,-31.73828125,-22.94921875,-26.3671875
124.53125,-19.04296875,-32.71484375,-18.5546875,-46.875
124.53515625,-43.45703125,-22.4609375,-11.23046875,-52.734375
124.5390625,-35.64453125,-13.671875,-8.30078125,-3.90625
124.54296875,-24.90234375,-3.90625,-8.7890625,-11.23046875
124.546875,-29.296875,3.41796875,-28.3203125,-42.48046875
124.55078125,-34.66796875,-6.8359375,-42.48046875,-36.62109375
124.5546875,-23.92578125,-16.6015625,-23.92578125,-16.6015625
124.55859375,-20.99609375,-12.20703125,-12.20703125,-18.06640625
124.5625,-11.71875,-15.13671875,-17.578125,-31.25
124.56640625,-22.94921875,-15.625,-17.08984375,2.44140625
124.5703125,-23.92578125,-13.18359375,-20.99609375,1.46484375
124.57421875,-25.87890625,-19.53125,-27.83203125,-46.875
124.578125,-31.73828125,-27.83203125,-23.4375,-51.7578125
124.58203125,-20.5078125,-30.2734375,-20.01953125,-41.9921875
124.5859375,-21.484375,-25.390625,-22.94921875,-26.3671875
124.58984375,-19.53125,-15.13671875,-29.296875,-35.15625
124.59375,-25.87890625,-2.9296875,-28.3203125,-32.2265625
124.59765625,-20.5078125,0.9765625,-25.390625,-25.87890625
124.6015625,-18.06640625,-11.23046875,-26.3671875,-24.4140625
124.60546875,-15.625,-11.23046875,-46.38671875,-6.8359375
124.609375,-9.765625,-13.18359375,-37.59765625,-7.8125
124.61328125,-3.90625,-19.04296875,2.9296875,-17.08984375
124.6171875,1.953125,-14.16015625,9.765625,-8.30078125
124.62109375,-1.46484375,-11.23046875,-2.9296875,-11.23046875
124.625,-4.8828125,-16.11328125,-18.06640625,-15.625
124.62890625,-15.13671875,-13.18359375,-12.6953125,-16.6015625
124.6328125,-23.4375,-7.8125,-13.18359375,-19.04296875
124.63671875,-19.04296875,-19.53125,-17.08984375,-14.16015625
124.640625,-7.32421875,-24.90234375,-16.6015625,-10.7421875
124.64453125,-14.6484375,-20.01953125,-15.625,-25.390625
124.6484375,-25.87890625,-23.92578125,-16.6015625,-41.50390625
124.65234375,-22.94921875,-19.04296875,-30.76171875,-31.73828125
124.65625,-19.04296875,-9.765625,-41.50390625,-17.08984375
124.66015625,-17.08984375,-11.71875,-30.2734375,-6.34765625
124.6640625,-10.25390625,-17.08984375,-7.8125,3.90625
124.66796875,-10.25390625,-21.97265625,4.8828125,-12.20703125
124.671875,-20.99609375,-15.13671875,-13.18359375,-18.5546875
124.67578125,20.01953125,-4.39453125,-45.41015625,-3.90625
124.6796875,9.27734375,-8.30078125,-36.62109375,-5.859375
124.68359375,-34.1796875,-10.7421875,-11.23046875,-24.90234375
124.6875,-32.71484375,-12.20703125,-15.13671875,-19.04296875
124.69140625,-36.1328125,-19.04296875,-25.87890625,-19.53125
124.6953125,-32.71484375,-19.53125,-21.97265625,-31.25
124.69921875,-22.94921875,-19.04296875,-14.6484375,-23.4375
124.703125,-27.83203125,-18.5546875,-10.25390625,-39.0625
124.70703125,-29.78515625,-6.8359375,-17.578125,-48.828125
124.7109375,-17.08984375,-2.44140625,-22.94921875,-20.01953125
124.71484375,-10.7421875,-23.92578125,-8.30078125,-4.8828125
124.71875,-14.6484375,-23.4375,4.39453125,-26.3671875
124.72265625,-36.1328125,-11.71875,-0.48828125,-11.23046875
124.7265625,-33.203125,-18.5546875,-10.25390625,-9.27734375
124.73046875,-23.92578125,-17.08984375,-14.6484375,-38.0859375
124.734375,-13.18359375,-7.32421875,-16.6015625,-39.0625
124.73828125,-13.18359375,-7.32421875,-15.13671875,-28.80859375
124.7421875,-5.37109375,-13.18359375,-22.94921875,-16.11328125
124.74609375,-12.6953125,-22.94921875,-29.78515625,-4.8828125
124.75,-34.66796875,-27.34375,-25.87890625,-15.625
124.75390625,-33.69140625,-25.87890625,-32.2265625,-65.4296875
124.7578125,-32.71484375,-27.83203125,-30.76171875,-45.41015625
124.76171875,-43.9453125,-28.3203125,-22.4609375,-13.671875
124.765625,-56.15234375,-28.3203125,-17.578125,-22.94921875
124.76953125,-22.94921875,-27.83203125,-20.01953125,-45.8984375
124.7734375,-19.04296875,-26.3671875,-15.625,-34.66796875
124.77734375,-29.296875,-25.390625,-6.34765625,-20.5078125
124.78125,-24.4140625,-24.90234375,-8.7890625,-29.296875
124.78515625,-34.66796875,-20.5078125,-15.13671875,-23.92578125
124.7890625,-13.18359375,-12.6953125,-25.87890625,8.7890625
124.79296875,7.32421875,-16.11328125,-30.2734375,20.01953125
124.796875,-3.90625,-21.97265625,-31.73828125,12.6953125
124.80078125,-17.08984375,-23.92578125,-21.97265625,-15.13671875
124.8046875,-28.80859375,-21.484375,-10.25390625,-39.55078125
124.80859375,-28.3203125,-19.04296875,-20.5078125,-9.765625
124.8125,-32.2265625,-26.85546875,-21.97265625,-8.30078125
124.81640625,-45.41015625,-18.06640625,-22.4609375,-36.1328125
124.8203125,-20.5078125,0.0,-41.50390625,-20.01953125
124.82421875,-11.23046875,0.0,-41.9921875,-1.46484375
124.828125,-39.55078125,-20.01953125,-20.01953125,-1.46484375
124.83203125,-49.8046875,-34.1796875,-7.8125,1.46484375
124.8359375,-17.578125,-29.78515625,-9.27734375,-10.25390625
124.83984375,-22.94921875,-18.5546875,-24.4140625,-45.41015625
124.84375,-22.4609375,-20.99609375,-31.25,-32.2265625
124.84765625,-5.859375,-27.34375,-26.3671875,-13.18359375
124.8515625,-14.16015625,-25.390625,-20.5078125,-11.71875
124.85546875,-10.7421875,-26.85546875,-21.97265625,-19.53125
124.859375,-14.6484375,-30.2734375,-20.5078125,-11.23046875
124.86328125,-27.83203125,-30.76171875,-21.97265625,-4.8828125
124.8671875,-32.71484375,-19.04296875,-27.83203125,-38.57421875
124.87109375,-25.390625,-5.859375,-24.4140625,-31.73828125
124.875,-18.5546875,-11.71875,-23.92578125,-31.73828125
124.87890625,-11.23046875,-24.4140625,-27.83203125,-37.59765625
124.8828125,-18.5546875,-21.97265625,-17.08984375,-20.5078125
124.88671875,-38.0859375,-15.625,-28.3203125,-9.27734375
124.890625,-8.7890625,-27.83203125,-31.25,-11.23046875
124.89453125,-9.27734375,-32.71484375,-16.6015625,-3.90625
124.8984375,-17.578125,-18.06640625,-32.2265625,7.32421875
124.90234375,-5.859375,-11.71875,-29.296875,-9.765625
124.90625,-19.04296875,-18.06640625,-14.6484375,-24.90234375
124.91015625,-27.83203125,-21.97265625,-19.04296875,-35.64453125
124.9140625,-35.15625,-28.3203125,-18.5546875,-32.71484375
124.91796875,-30.2734375,-22.94921875,-15.625,-38.57421875
124.921875,-14.6484375,-13.18359375,-23.4375,-38.57421875
124.92578125,-2.44140625,-15.13671875,-23.92578125,-25.87890625
124.9296875,-7.32421875,-15.625,-27.83203125,-29.296875
124.93359375,-20.5078125,-13.671875,-36.62109375,-34.1796875
124.9375,-10.25390625,-7.8125,-37.59765625,-26.3671875
124.94140625,-0.48828125,-7.8125,-30.2734375,5.37109375
124.9453125,-4.39453125,-18.5546875,-19.04296875,8.7890625
124.94921875,-11.23046875,-36.62109375,-20.99609375,-15.625
124.953125,-8.7890625,-31.73828125,-21.484375,-17.578125
124.95703125,-5.37109375,-18.5546875,-21.484375,-25.87890625
124.9609375,-7.32421875,-4.39453125,-22.94921875,-13.671875
124.96484375,-16.11328125,1.953125,-37.59765625,-5.37109375
124.96875,-24.90234375,-12.20703125,-36.1328125,-29.78515625
124.97265625,-21.97265625,-26.85546875,-9.765625,-41.9921875
124.9765625,-18.06640625,-35.64453125,-5.37109375,-21.484375
124.98046875,-16.6015625,-28.3203125,-10.25390625,-7.8125
124.984375,-18.5546875,-21.484375,-20.99609375,-29.78515625
124.98828125,-17.08984375,-21.484375,-35.15625,-38.0859375
124.9921875,-7.8125,-12.6953125,-21.97265625,-36.1328125
124.99609375,-11.71875,-13.18359375,-18.5546875,-18.5546875
125.0,-15.625,-15.625,-22.4609375,-18.5546875
125.00390625,-22.4609375,-18.06640625,-11.23046875,-20.99609375
125.0078125,-25.390625,-20.99609375,-9.765625,-24.4140625
125.01171875,-28.3203125,-18.5546875,-16.11328125,-35.64453125
125.015625,-26.3671875,-18.5546875,-14.16015625,-41.015625
125.01953125,-26.85546875,-6.8359375,-26.3671875,-39.0625
125.0234375,-32.2265625,-8.30078125,-36.62109375,-7.8125
125.02734375,-16.6015625,-22.94921875,-19.04296875,-16.11328125
125.03125,-35.64453125,-23.4375,-17.578125,-48.33984375
125.03515625,-54.6875,-15.13671875,-19.04296875,-44.43359375
125.0390625,-26.3671875,-9.27734375,-14.16015625,-47.8515625
125.04296875,-25.87890625,-14.16015625,-12.6953125,-42.48046875
125.046875,-43.9453125,-21.97265625,-10.7421875,-28.80859375
125.05078125,-28.80859375,-23.92578125,-12.6953125,-4.39453125
125.0546875,-29.296875,-30.76171875,-17.08984375,-20.01953125
125.05859375,-29.78515625,-31.25,-18.06640625,-48.828125
125.0625,-18.5546875,-12.6953125,-20.99609375,-38.57421875
125.06640625,-22.94921875,-5.37109375,-29.296875,-37.109375
125.0703125,-27.34375,-12.20703125,-21.97265625,-28.3203125
125.07421875,-24.4140625,-20.01953125,-20.5078125,-22.4609375
125.078125,-38.57421875,-22.4609375,-40.0390625,-13.18359375
125.08203125,-45.8984375,-17.08984375,-33.203125,8.7890625
125.0859375,-32.71484375,-10.25390625,-18.5546875,-19.04296875
125.08984375,-47.8515625,-8.7890625,-26.85546875,-37.59765625
125.09375,-41.50390625,-9.27734375,-36.62109375,-19.04296875
125.09765625,-17.08984375,-31.73828125,-43.45703125,-24.4140625
125.1015625,-16.11328125,-45.8984375,-22.4609375,-28.3203125
125.10546875,-37.109375,-26.3671875,-2.44140625,-18.5546875
125.109375,-30.76171875,-16.6015625,-17.578125,-19.04296875
125.11328125,9.27734375,-26.3671875,-21.484375,-18.5546875
125.1171875,-7.32421875,-38.57421875,-2.44140625,-41.015625
125.12109375,-30.2734375,-31.25,-1.953125,-37.59765625
125.125,-17.08984375,-14.16015625,-15.13671875,-24.4140625
125.12890625,-13.18359375,-6.34765625,-25.390625,-22.4609375
125.1328125,-23.4375,-6.34765625,-22.4609375,-8.30078125
125.13671875,-33.203125,-10.7421875,-18.06640625,-21.484375
125.140625,-28.80859375,-20.01953125,-14.6484375,-36.62109375
125.14453125,-33.69140625,-27.34375,-6.34765625,-16.11328125
125.1484375,-37.109375,-16.6015625,-11.23046875,-6.8359375
125.15234375,-20.99609375,-12.6953125,-9.765625,-21.97265625
125.15625,-23.92578125,-21.97265625,-6.8359375,-20.99609375
125.16015625,-27.83203125,-22.94921875,-15.625,-14.16015625
125.1640625,-23.4375,-17.578125,-23.4375,-6.34765625
125.16796875,-0.48828125,-16.6015625,-31.25,-0.48828125
125.171875,3.90625,-13.671875,-31.25,-22.4609375
125.17578125,-18.5546875,-18.5546875,-20.01953125,-43.45703125
125.1796875,-18.5546875,-23.4375,-18.5546875,-42.48046875
125.18359375,-3.90625,-22.4609375,-28.3203125,-21.97265625
125.1875,-3.90625,-19.53125,-35.64453125,-26.3671875
125.19140625,-18.5546875,-15.13671875,-27.83203125,-31.73828125
125.1953125,-10.25390625,-25.390625,-9.765625,-14.6484375
125.19921875,-5.859375,-31.25,-9.765625,0.48828125
125.203125,3.90625,-22.4609375,-16.6015625,-9.765625
125.20703125,-16.6015625,-18.5546875,-31.73828125,-36.62109375
125.2109375,-19.53125,-20.01953125,-48.828125,-12.6953125
125.21484375,7.8125,-22.94921875,-42.96875,-5.859375
125.21875,3.90625,-24.90234375,-30.76171875,-30.2734375
125.22265625,-4.8828125,-15.625,-25.390625,-24.4140625
125.2265625,-19.04296875,-13.671875,-18.5546875,-7.8125
125.23046875,-6.34765625,-15.13671875,-13.671875,-16.11328125
125.234375,-2.9296875,-15.625,-16.11328125,-30.76171875
125.23828125,-20.01953125,-21.484375,-17.578125,-19.04296875
125.2421875,-13.671875,-19.53125,-12.6953125,-7.8125
125.24609375,-8.7890625,-22.94921875,-18.06640625,-6.34765625
125.25,-14.6484375,-28.80859375,-30.2734375,-10.25390625
125.25390625,-23.4375,-21.484375,-27.34375,-20.5078125
125.2578125,-11.71875,-22.94921875,-15.13671875,-3.90625
125.26171875,0.9765625,-22.4609375,-20.5078125,3.41796875
125.265625,4.8828125,-12.20703125,-19.04296875,-11.23046875
125.26953125,-1.46484375,-19.53125,-6.34765625,19.04296875
125.2734375,-8.7890625,-22.4609375,2.9296875,18.06640625
125.27734375,-7.8125,-14.16015625,2.9296875,-24.4140625
125.28125,-19.04296875,-11.23046875,-12.6953125,-22.94921875
125.28515625,-23.4375,-14.16015625,-24.4140625,-20.01953125
125.2890625,-5.859375,-30.76171875,-20.99609375,-21.97265625
125.29296875,-5.37109375,-37.59765625,-26.3671875,-24.4140625
125.296875,-28.80859375,-31.25,-37.109375,-31.73828125
125.30078125,-23.4375,-30.2734375,-28.80859375,-26.3671875
125.3046875,-37.59765625,-37.109375,-7.8125,-9.765625
125.30859375,-43.9453125,-37.59765625,-5.859375,-27.83203125
125.3125,-38.57421875,-16.11328125,-18.06640625,-15.625
125.31640625,-37.109375,-4.39453125,-12.20703125,2.9296875
125.3203125,-33.69140625,-8.30078125,-11.23046875,-43.45703125
125.32421875,-36.62109375,-17.578125,-13.18359375,-36.62109375
125.328125,-14.16015625,-19.53125,-18.5546875,-17.08984375
125.33203125,-2.44140625,-19.53125,-28.80859375,-0.9765625
125.3359375,-1.953125,-24.4140625,-15.625,3.90625
125.33984375,-8.7890625,-30.2734375,0.48828125,-8.7890625
125.34375,-16.6015625,-32.71484375,0.0,-14.16015625
125.34765625,-4.8828125,-25.390625,-8.7890625,-27.83203125
125.3515625,-4.39453125,-22.4609375,-11.71875,-27.83203125
125.35546875,-24.4140625,-23.4375,-7.32421875,-20.01953125
125.359375,-29.296875,-20.99609375,-5.37109375,-14.6484375
125.36328125,-27.34375,-18.5546875,-1.46484375,-15.13671875
125.3671875,-31.25,-23.4375,-7.32421875,-30.2734375
125.37109375,-20.01953125,-22.94921875,-15.625,-46.875
125.375,-8.7890625,-24.4140625,-15.625,-1.953125
125.37890625,-9.27734375,-29.78515625,-34.1796875,14.6484375
125.3828125,-7.8125,-22.94921875,-39.55078125,-30.76171875
125.38671875,-24.4140625,-17.08984375,-16.6015625,-41.9921875
125.390625,-35.15625,-22.94921875,-4.8828125,-35.15625
125.39453125,-23.4375,-31.73828125,-1.46484375,-33.203125
125.3984375,-29.296875,-33.203125,-4.8828125,-37.59765625
125.40234375,-39.0625,-35.64453125,-4.8828125,-27.83203125
125.40625,-26.85546875,-30.2734375,-19.04296875,-19.53125
125.41015625,-15.625,-13.18359375,-31.73828125,-25.390625
125.4140625,-21.97265625,-18.06640625,-13.671875,-33.203125
125.41796875,-25.87890625,-27.34375,-10.7421875,-36.62109375
125.421875,-20.5078125,-17.08984375,-9.27734375,-18.06640625
125.42578125,-11.23046875,-20.01953125,-9.27734375,7.8125
125.4296875,-16.11328125,-24.90234375,-27.83203125,-9.27734375
125.43359375,-34.1796875,-25.390625,-31.25,-27.83203125
125.4375,-42.48046875,-31.73828125,-12.20703125,-27.34375
125.44140625,-23.92578125,-24.90234375,6.34765625,-20.99609375
125.4453125,-14.16015625,-15.625,4.39453125,-28.3203125
125.44921875,-23.4375,-15.13671875,-2.44140625,-48.828125
125.453125,-11.71875,-22.94921875,-4.8828125,-32.2265625
125.45703125,-8.7890625,-38.57421875,-3.90625,-8.7890625
125.4609375,-20.99609375,-44.43359375,-7.8125,-6.34765625
125.46484375,-4.8828125,-31.25,-16.6015625,-23.92578125
125.46875,-0.48828125,-13.671875,-20.99609375,-53.7109375
125.47265625,-11.23046875,-1.953125,-32.2265625,-45.8984375
125.4765625,-21.97265625,-3.90625,-33.203125,-37.109375
125.48046875,-31.73828125,-14.6484375,-33.203125,-26.3671875
125.484375,-30.76171875,-18.5546875,-43.45703125,-13.18359375
125.48828125,-19.04296875,-20.01953125,-18.06640625,-26.3671875
125.4921875,-14.16015625,-24.4140625,1.953125,-28.80859375
125.49609375,-21.484375,-31.25,1.953125,-17.08984375
125.5,-9.27734375,-35.64453125,2.9296875,-20.5078125
125.50390625,7.32421875,-35.64453125,2.9296875,-30.2734375
125.5078125,22.94921875,-45.41015625,-2.44140625,-14.6484375
125.51171875,15.625,-46.875,-32.71484375,-10.25390625
125.515625,-12.20703125,-20.99609375,-39.55078125,-12.6953125
125.51953125,-32.2265625,-13.18359375,-16.11328125,-27.34375
125.5234375,-44.921875,-16.6015625,-7.32421875,-37.59765625
125.52734375,-38.0859375,-19.04296875,-7.8125,-17.578125
125.53125,-22.94921875,-21.97265625,-7.32421875,-29.78515625
125.53515625,-24.4140625,-28.80859375,-12.20703125,-22.94921875
125.5390625,-43.9453125,-39.55078125,-14.6484375,0.9765625
125.54296875,-47.36328125,-32.71484375,-19.04296875,-32.2265625
125.546875,-22.4609375,-31.73828125,-36.62109375,-37.109375
125.55078125,-18.06640625,-26.3671875,-62.5,-17.578125
125.5546875,-22.94921875,-15.13671875,-57.6171875,-22.94921875
125.55859375,-28.80859375,-21.484375,-18.5546875,-23.4375
125.5625,-27.34375,-38.0859375,-0.48828125,-12.6953125
125.56640625,-10.7421875,-43.9453125,-7.32421875,-1.953125
125.5703125,0.0,-24.90234375,-17.08984375,-1.46484375
125.57421875,-9.765625,-15.625,-24.90234375,-18.5546875
125.578125,-20.01953125,-21.484375,-27.83203125,-35.64453125
125.58203125,-24.4140625,-24.4140625,-24.4140625,-45.8984375
125.5859375,-23.92578125,-19.04296875,-12.6953125,-10.7421875
125.58984375,-30.76171875,-16.6015625,-20.99609375,4.39453125
125.59375,-29.78515625,-18.06640625,-30.76171875,-8.7890625
125.59765625,-23.92578125,-20.5078125,-28.80859375,-13.18359375
125.6015625,-39.0625,-27.83203125,-35.64453125,-26.85546875
125.60546875,-40.0390625,-31.25,-37.59765625,-2.9296875
125.609375,-32.2265625,-39.55078125,-31.25,-0.9765625
125.61328125,-30.76171875,-38.0859375,-35.15625,-35.15625
125.6171875,-52.24609375,-30.2734375,-38.57421875,-18.06640625
125.62109375,-41.50390625,-34.1796875,-31.25,-19.53125
125.625,-15.625,-36.1328125,-23.92578125,-40.0390625
125.62890625,-18.06640625,-35.64453125,-28.80859375,-30.2734375
125.6328125,-16.11328125,-41.50390625,-27.83203125,-30.76171875
125.63671875,-0.9765625,-35.15625,-28.80859375,-19.53125
125.640625,7.32421875,-20.5078125,-42.48046875,-6.34765625
125.64453125,-17.578125,-19.04296875,-29.296875,15.625
125.6484375,-25.87890625,-19.04296875,-36.62109375,-8.7890625
125.65234375,-23.92578125,-13.18359375,-38.57421875,-22.4609375
125.65625,-23.4375,-14.6484375,-12.20703125,-14.16015625
125.66015625,-15.13671875,-16.6015625,-7.32421875,-30.76171875
125.6640625,-17.578125,-21.484375,-6.34765625,-13.18359375
125.66796875,-17.578125,-14.16015625,-16.11328125,-2.9296875
125.671875,-14.16015625,-9.765625,-30.2734375,-29.296875
125.67578125,-22.4609375,-18.5546875,-25.87890625,-36.62109375
125.6796875,-23.92578125,-22.94921875,-18.5546875,-32.2265625
125.68359375,-25.87890625,-21.484375,-21.97265625,-20.01953125
125.6875,-30.2734375,-15.625,-20.01953125,-25.390625
125.69140625,-17.08984375,-15.625,-16.6015625,-38.0859375
125.6953125,-7.8125,-24.4140625,-18.06640625,-4.39453125
125.69921875,-10.25390625,-30.2734375,-16.6015625,-2.44140625
125.703125,-10.25390625,-35.15625,-17.08984375,-20.01953125
125.70703125,-5.37109375,-34.1796875,-23.92578125,-20.5078125
125.7109375,3.90625,-26.3671875,-23.92578125,-24.4140625
125.71484375,3.41796875,-20.5078125,-23.4375,-24.4140625
125.71875,-11.71875,-10.7421875,-24.4140625,-34.66796875
125.72265625,-19.04296875,-19.53125,-28.3203125,-29.78515625
125.7265625,-14.16015625,-26.3671875,-33.69140625,-16.6015625
125.73046875,-16.11328125,-18.5546875,-33.69140625,-0.9765625
125.734375,-7.32421875,-9.27734375,-43.9453125,-4.39453125
125.73828125,-17.08984375,-23.92578125,-35.15625,-23.92578125
125.7421875,-28.3203125,-38.0859375,-19.04296875,-15.13671875
125.74609375,-13.18359375,-27.83203125,-14.16015625,-13.18359375
125.75,-21.97265625,-20.01953125,-7.32421875,-23.92578125
125.75390625,-19.04296875,-17.578125,-15.13671875,-28.3203125
125.7578125,-21.97265625,-26.3671875,-21.97265625,-26.3671875
125.76171875,-28.3203125,-33.203125,-18.06640625,-26.85546875
125.765625,-29.78515625,-30.2734375,-19.53125,-36.1328125
125.76953125,-28.80859375,-29.296875,-22.94921875,-32.71484375
125.7734375,-20.99609375,-27.83203125,-15.13671875,-29.296875
125.77734375,-19.53125,-22.4609375,-5.859375,-25.390625
125.78125,-15.625,-23.92578125,-9.27734375,-1.953125
125.78515625,-17.08984375,-30.76171875,-22.4609375,-20.5078125
125.7890625,-16.11328125,-35.64453125,-25.390625,-36.62109375
125.79296875,-20.01953125,-35.15625,-16.11328125,-14.16015625
125.796875,-21.97265625,-32.2265625,-14.16015625,-10.25390625
125.80078125,-27.83203125,-31.25,-18.5546875,-23.4375
125.8046875,-28.3203125,-22.94921875,-31.73828125,-21.97265625
125.80859375,-19.53125,-22.4609375,-43.9453125,-20.99609375
125.8125,-33.203125,-31.73828125,-20.5078125,-32.71484375
125.81640625,-37.59765625,-38.0859375,0.48828125,-37.109375
125.8203125,-23.4375,-36.62109375,-11.23046875,-31.73828125
125.82421875,-25.390625,-21.97265625,-16.6015625,-24.4140625
125.828125,-37.109375,-19.53125,-10.25390625,-29.78515625
125.83203125,-32.2265625,-24.4140625,-15.13671875,-40.52734375
125.8359375,-38.57421875,-31.73828125,-42.48046875,-21.97265625
125.83984375,-35.64453125,-28.80859375,-46.38671875,-1.953125
125.84375,-31.25,-28.80859375,-18.5546875,-14.6484375
125.84765625,-25.87890625,-41.015625,-13.18359375,-12.6953125
125.8515625,0.9765625,-36.62109375,-38.0859375,-8.30078125
125.85546875,-17.08984375,-24.4140625,-41.9921875,-27.83203125
125.859375,-35.64453125,-20.99609375,-20.5078125,-36.1328125
125.86328125,-37.59765625,-17.578125,-7.8125,-24.4140625
125.8671875,-29.296875,-19.53125,-5.859375,-29.78515625
125.87109375,-9.765625,-32.2265625,-16.11328125,-37.59765625
125.875,-3.90625,-37.109375,-24.90234375,-23.92578125
125.87890625,-25.390625,-32.71484375,-33.69140625,-20.5078125
125.8828125,-33.69140625,-24.90234375,-36.1328125,-4.8828125
125.88671875,-17.578125,-19.04296875,-28.80859375,0.9765625
125.890625,-13.18359375,-30.2734375,-29.296875,-18.06640625
125.89453125,-18.06640625,-41.50390625,-23.92578125,-26.85546875
125.8984375,-24.4140625,-32.2265625,-11.23046875,-20.99609375
125.90234375,-22.94921875,-22.94921875,-14.6484375,-10.7421875
125.90625,-4.39453125,-13.18359375,-26.85546875,6.8359375
125.91015625,6.8359375,-12.20703125,-33.69140625,-1.953125
125.9140625,-11.23046875,-26.85546875,-20.01953125,-20.01953125
125.91796875,-18.06640625,-32.2265625,-8.7890625,-21.484375
125.921875,-15.13671875,-30.76171875,-7.8125,-13.671875
125.92578125,-24.4140625,-26.3671875,-9.27734375,-16.11328125
125.9296875,-19.04296875,-25.390625,-15.13671875,-38.57421875
125.93359375,-17.578125,-28.80859375,-24.4140625,-46.875
125.9375,-36.1328125,-24.90234375,-33.203125,-40.52734375
125.94140625,-36.62109375,-19.04296875,-30.76171875,-28.3203125
125.9453125,-26.85546875,-30.2734375,-39.0625,-16.11328125
125.94921875,-15.13671875,-30.76171875,-29.78515625,-14.6484375
125.953125,-27.34375,-18.5546875,-17.578125,-28.80859375
125.95703125,-39.55078125,-16.6015625,-22.94921875,-25.390625
125.9609375,-33.69140625,-15.625,-15.625,-18.06640625
125.96484375,-30.2734375,-19.53125,-11.71875,-33.203125
125.96875,-12.20703125,-24.4140625,-26.85546875,-29.78515625
125.97265625,-11.23046875,-21.97265625,-20.5078125,-5.859375
125.9765625,-14.6484375,-22.94921875,4.39453125,0.0
125.98046875,-8.30078125,-27.34375,3.90625,-8.30078125
125.984375,-26.85546875,-31.25,-6.34765625,-6.8359375
125.98828125,-28.3203125,-21.97265625,-7.8125,-26.85546875
125.9921875,-6.8359375,-17.08984375,-7.8125,-20.99609375
125.99609375,-10.7421875,-32.2265625,-9.765625,-26.85546875
126.0,-21.97265625,-36.62109375,-8.30078125,-41.50390625
126.00390625,-21.484375,-38.57421875,-8.7890625,-39.0625
126.0078125,-29.78515625,-34.66796875,-19.04296875,-34.1796875
126.01171875,-32.71484375,-20.99609375,-26.3671875,-29.78515625
126.015625,-18.06640625,-18.5546875,-28.3203125,-20.01953125
126.01953125,-19.04296875,-17.08984375,-28.3203125,-18.5546875
126.0234375,-38.0859375,-16.11328125,-25.390625,-41.9921875
126.02734375,-40.52734375,-21.97265625,-23.92578125,-41.9921875
126.03125,-42.48046875,-20.5078125,-30.2734375,-28.3203125
126.03515625,-43.9453125,-16.6015625,-23.92578125,-27.34375
126.0390625,-31.73828125,-22.94921875,-11.71875,-25.390625
126.04296875,-24.90234375,-23.92578125,-16.6015625,-21.484375
126.046875,-43.9453125,-20.99609375,-19.04296875,-33.203125
126.05078125,-37.59765625,-30.76171875,-16.6015625,-37.109375
126.0546875,-13.18359375,-29.296875,-22.94921875,-18.06640625
126.05859375,-10.7421875,-26.85546875,-24.90234375,-16.6015625
126.0625,-17.08984375,-36.1328125,-15.625,-22.4609375
126.06640625,-20.99609375,-34.66796875,-11.71875,-8.30078125
126.0703125,4.39453125,-26.3671875,-8.7890625,-18.06640625
126.07421875,7.8125,-20.5078125,-7.8125,-37.109375
126.078125,-8.30078125,-25.390625,-10.25390625,-20.5078125
126.08203125,-16.11328125,-25.390625,-12.6953125,8.7890625
126.0859375,-32.2265625,-23.4375,-11.71875,-3.90625
126.08984375,-23.4375,-30.2734375,-9.765625,-46.875
126.09375,-20.5078125,-28.3203125,-17.578125,-43.9453125
126.09765625,-27.34375,-27.34375,-11.23046875,-26.85546875
126.1015625,-31.25,-20.99609375,-6.34765625,-24.90234375
126.10546875,-41.9921875,-12.20703125,-17.578125,-12.6953125
126.109375,-41.50390625,-15.625,-12.20703125,-17.578125
126.11328125,-42.96875,-15.625,-6.34765625,-32.71484375
126.1171875,-51.26953125,-23.4375,-11.23046875,-42.48046875
126.12109375,-24.90234375,-31.73828125,-10.25390625,-27.34375
126.125,3.90625,-34.66796875,-5.37109375,-7.32421875
126.12890625,-2.9296875,-32.2265625,-13.671875,-4.39453125
126.1328125,-20.01953125,-14.16015625,-23.92578125,-7.8125
126.13671875,-29.78515625,-12.6953125,-22.4609375,-18.06640625
126.140625,-27.83203125,-12.20703125,-24.90234375,-27.83203125
126.14453125,-30.2734375,-12.6953125,-21.97265625,-35.64453125
126.1484375,-36.62109375,-31.73828125,-17.08984375,-26.3671875
126.15234375,-20.01953125,-29.78515625,-21.484375,-6.34765625
126.15625,-22.4609375,-10.7421875,-41.015625,-13.18359375
126.16015625,-21.97265625,-7.8125,-46.875,-22.4609375
126.1640625,-20.99609375,-6.34765625,-19.53125,-10.25390625
126.16796875,-23.92578125,-10.7421875,-12.20703125,-12.20703125
126.171875,-20.5078125,-21.97265625,-18.5546875,-33.203125
126.17578125,-16.11328125,-29.78515625,-14.16015625,-30.2734375
126.1796875,-7.8125,-32.2265625,-9.765625,-16.6015625
126.18359375,-30.76171875,-27.34375,-11.71875,-24.90234375
126.1875,-22.4609375,-19.04296875,-24.90234375,-10.25390625
126.19140625,20.5078125,-9.765625,-45.41015625,-5.37109375
126.1953125,12.20703125,-15.625,-38.57421875,-19.53125
126.19921875,5.859375,-25.87890625,-11.23046875,-25.390625
126.203125,1.953125,-26.85546875,0.0,-22.4609375
126.20703125,-8.30078125,-25.87890625,-6.34765625,-20.5078125
126.2109375,-13.671875,-18.5546875,-13.671875,-22.4609375
126.21484375,-7.8125,-25.390625,-6.34765625,-5.859375
126.21875,-4.8828125,-41.015625,-6.34765625,-6.34765625
126.22265625,-13.671875,-22.4609375,-17.578125,-33.69140625
126.2265625,-16.6015625,-5.37109375,-10.25390625,-31.25
126.23046875,-27.34375,-11.71875,-5.859375,-16.11328125
126.234375,-35.15625,-11.23046875,-14.6484375,-31.25
126.23828125,-43.45703125,-18.06640625,-15.13671875,-33.69140625
126.2421875,-40.52734375,-20.5078125,-17.578125,-25.390625
126.24609375,-28.3203125,-9.765625,-18.5546875,-25.87890625
126.25,-19.53125,-14.6484375,-16.6015625,-25.390625
126.25390625,-30.76171875,-24.4140625,-16.11328125,-22.94921875
126.2578125,-39.0625,-21.484375,-15.625,-20.01953125
126.26171875,-27.34375,-6.8359375,-9.765625,-22.4609375
126.265625,-22.94921875,-9.765625,-0.48828125,-20.99609375
126.26953125,-11.23046875,-21.484375,-2.9296875,-23.4375
126.2734375,-3.41796875,-11.71875,-18.5546875,-6.8359375
126.27734375,-7.8125,-9.27734375,-25.390625,-8.7890625
126.28125,-19.53125,-23.4375,-8.7890625,-12.6953125
126.28515625,-16.11328125,-29.296875,0.0,-3.41796875
126.2890625,-6.8359375,-19.04296875,-5.859375,-22.94921875
126.29296875,-20.5078125,-11.23046875,-8.30078125,-29.296875
126.296875,-13.18359375,-20.5078125,-8.30078125,-8.7890625
126.30078125,-12.6953125,-24.4140625,-15.13671875,-3.90625
126.3046875,-21.97265625,-17.578125,-22.4609375,-26.85546875
126.30859375,-16.6015625,-9.765625,-17.578125,-14.6484375
126.3125,-32.71484375,-6.34765625,-11.71875,-14.6484375
126.31640625,-36.62109375,-5.859375,-14.16015625,-26.3671875
126.3203125,-8.30078125,-15.13671875,-19.53125,-15.13671875
126.32421875,-13.671875,-19.53125,-8.30078125,-19.53125
126.328125,-24.90234375,-17.08984375,0.0,-25.87890625
126.33203125,-4.8828125,-19.04296875,-0.9765625,-28.80859375
126.3359375,-23.92578125,-29.296875,-7.32421875,-35.64453125
126.33984375,-25.390625,-36.1328125,-12.20703125,-39.55078125
126.34375,-21.97265625,-24.4140625,-18.5546875,-24.90234375
126.34765625,-34.66796875,-12.20703125,-20.5078125,-19.53125
126.3515625,-25.390625,-10.7421875,-10.25390625,-27.34375
126.35546875,-8.7890625,-14.6484375,-2.44140625,-8.30078125
126.359375,2.44140625,-19.04296875,-9.765625,-4.39453125
126.36328125,-5.37109375,-18.5546875,-31.25,-17.578125
126.3671875,-17.578125,-23.4375,-30.76171875,-18.5546875
126.37109375,-28.3203125,-29.296875,-15.13671875,-27.83203125
126.375,-37.59765625,-35.64453125,-19.04296875,-45.41015625
126.37890625,-33.203125,-24.90234375,-13.671875,-35.64453125
126.3828125,-28.80859375,-8.30078125,-7.32421875,-28.80859375
126.38671875,-24.90234375,-12.20703125,-12.20703125,-25.87890625
126.390625,-18.5546875,-21.97265625,-29.78515625,-25.87890625
126.39453125,-2.9296875,-23.92578125,-34.66796875,-10.7421875
126.3984375,7.8125,-30.2734375,-27.83203125,-5.859375
126.40234375,-14.6484375,-26.85546875,-29.296875,-31.25
126.40625,-22.94921875,-15.625,-27.83203125,-20.01953125
126.41015625,-20.01953125,-19.53125,-27.83203125,-29.296875
126.4140625,-28.3203125,-20.99609375,-28.3203125,-39.55078125
126.41796875,-20.01953125,-14.16015625,-21.484375,-26.3671875
126.421875,-8.30078125,-8.30078125,-23.92578125,-13.18359375
126.42578125,0.48828125,-12.20703125,-20.99609375,-21.97265625
126.4296875,-5.37109375,-17.578125,-23.92578125,-22.4609375
126.43359375,-8.7890625,-27.34375,-39.0625,-8.7890625
126.4375,-1.46484375,-26.3671875,-28.3203125,-23.92578125
126.44140625,-8.7890625,-22.94921875,-11.71875,-28.80859375
126.4453125,-24.4140625,-26.3671875,-7.8125,-30.2734375
126.44921875,-38.0859375,-22.94921875,-16.6015625,-33.69140625
126.453125,-28.3203125,-20.5078125,-29.78515625,-20.5078125
126.45703125,-31.25,-16.11328125,-28.3203125,-15.13671875
126.4609375,-24.90234375,-19.04296875,-14.6484375,-3.90625
126.46484375,-10.25390625,-24.90234375,-2.9296875,-2.44140625
126.46875,-7.8125,-18.06640625,-7.8125,-20.5078125
126.47265625,-8.7890625,-11.71875,-19.53125,-5.37109375
126.4765625,-11.71875,-13.671875,-30.76171875,1.953125
126.48046875,-16.11328125,-20.01953125,-47.36328125,-9.27734375
126.484375,-14.6484375,-22.4609375,-35.64453125,-8.30078125
126.48828125,-25.390625,-23.4375,-2.44140625,-18.5546875
126.4921875,-25.390625,-32.71484375,2.9296875,-32.71484375
126.49609375,-5.37109375,-33.69140625,-5.859375,-38.57421875
126.5,0.0,-21.97265625,-12.6953125,-24.4140625
126.50390625,-16.11328125,-19.04296875,-20.99609375,0.0
126.5078125,-18.06640625,-17.578125,-7.8125,11.71875
126.51171875,-14.16015625,-15.13671875,4.39453125,-11.23046875
126.515625,-27.83203125,-13.671875,-15.13671875,-24.4140625
126.51953125,-24.4140625,-8.7890625,-24.90234375,-30.76171875
126.5234375,-24.90234375,-2.9296875,-19.53125,-47.8515625
126.52734375,-22.4609375,-8.30078125,-12.20703125,-25.87890625
126.53125,-15.13671875,-15.13671875,-7.32421875,-13.18359375
126.53515625,-9.765625,-17.578125,-10.7421875,-30.76171875
126.5390625,-2.44140625,-14.16015625,-24.90234375,3.90625
126.54296875,-14.6484375,-13.671875,-39.0625,11.71875
126.546875,-16.11328125,-31.25,-26.3671875,-14.16015625
126.55078125,-11.71875,-39.0625,-14.16015625,-14.16015625
126.5546875,-8.7890625,-27.34375,-17.08984375,-28.80859375
126.55859375,-1.953125,-22.94921875,-18.06640625,-27.83203125
126.5625,0.0,-31.25,-28.80859375,-15.13671875
126.56640625,-20.01953125,-20.99609375,-38.57421875,-21.484375
126.5703125,-27.34375,-14.16015625,-17.578125,-26.85546875
126.57421875,-23.92578125,-20.5078125,-6.8359375,-17.08984375
126.578125,-32.71484375,-20.5078125,-11.71875,-19.53125
126.58203125,-28.80859375,-18.06640625,-16.11328125,-30.2734375
126.5859375,-31.73828125,-27.83203125,-20.99609375,-40.52734375
126.58984375,-34.66796875,-30.76171875,-23.92578125,-26.85546875
126.59375,-32.71484375,-32.71484375,-24.4140625,-21.97265625
126.59765625,-22.4609375,-38.0859375,-16.6015625,-23.4375
126.6015625,-8.30078125,-22.4609375,-31.73828125,-4.8828125
126.60546875,-18.06640625,-33.69140625,-33.203125,10.25390625
126.609375,-30.2734375,-48.828125,-14.16015625,-9.765625
126.61328125,-33.69140625,-27.34375,-20.5078125,-32.2265625
126.6171875,-28.3203125,-27.83203125,-28.80859375,-24.90234375
126.62109375,-31.73828125,-38.0859375,-19.53125,-23.4375
126.625,-23.92578125,-32.2265625,-14.16015625,-27.34375
126.62890625,-22.4609375,-30.2734375,-19.53125,-28.3203125
126.6328125,-44.43359375,-24.90234375,-29.296875,-25.87890625
126.63671875,-34.66796875,-16.6015625,-28.3203125,-25.390625
126.640625,-13.18359375,-16.6015625,-24.4140625,-15.13671875
126.64453125,-14.6484375,-11.23046875,-41.50390625,-32.2265625
126.6484375,-13.671875,-16.6015625,-45.8984375,-31.73828125
126.65234375,-14.16015625,-30.76171875,-25.390625,-13.18359375
126.65625,-22.4609375,-40.0390625,-12.20703125,-23.92578125
126.66015625,-30.76171875,-41.50390625,-25.87890625,-25.87890625
126.6640625,-44.43359375,-23.92578125,-38.0859375,-15.13671875
126.66796875,-42.48046875,-9.27734375,-22.94921875,-31.73828125
126.671875,-23.4375,-6.34765625,-34.66796875,-27.83203125
126.67578125,-20.5078125,-11.71875,-40.0390625,-5.859375
126.6796875,-28.3203125,-23.92578125,-11.71875,-17.08984375
126.68359375,-34.1796875,-20.5078125,-6.8359375,-34.1796875
126.6875,-39.55078125,-20.01953125,-19.04296875,-44.43359375
126.69140625,-37.109375,-28.3203125,-26.3671875,-53.22265625
126.6953125,-41.50390625,-30.2734375,-17.08984375,-32.2265625
126.69921875,-39.55078125,-33.69140625,-11.23046875,-37.109375
126.703125,-33.203125,-25.390625,-17.578125,-52.24609375
126.70703125,-46.875,-21.484375,-15.13671875,-53.22265625
126.7109375,-57.6171875,-22.4609375,-15.13671875,-62.5
126.71484375,-65.91796875,-20.5078125,-16.6015625,-54.19921875
126.71875,-76.171875,-26.3671875,-13.671875,-67.87109375
126.72265625,-69.82421875,-22.4609375,-12.20703125,-74.70703125
126.7265625,-65.4296875,-24.4140625,-20.01953125,-77.1484375
126.73046875,-80.56640625,-28.3203125,-34.1796875,-96.6796875
126.734375,-104.4921875,-29.78515625,-22.94921875,-117.67578125
126.73828125,-103.02734375,-36.1328125,-15.13671875,-115.234375
126.7421875,-95.21484375,-27.83203125,-21.97265625,-100.09765625
126.74609375,-112.3046875,-23.4375,-14.16015625,-106.4453125
126.75,-114.2578125,-43.45703125,0.0,-122.55859375
126.75390625,-113.76953125,-39.0625,6.34765625,-98.6328125
126.7578125,-127.9296875,-17.08984375,15.13671875,-114.74609375
126.76171875,-120.1171875,-26.85546875,4.8828125,-142.578125
126.765625,-101.5625,-44.921875,-7.32421875,-113.28125
126.76953125,-99.12109375,-34.66796875,-12.20703125,-88.37890625
126.7734375,-103.515625,-13.671875,-19.53125,-71.2890625
126.77734375,-109.375,-12.6953125,-6.34765625,-75.68359375
126.78125,-102.5390625,-16.11328125,-19.04296875,-84.9609375
126.78515625,-85.44921875,-14.6484375,-30.76171875,-78.61328125
126.7890625,-63.4765625,-18.06640625,-9.765625,-61.03515625
126.79296875,-53.7109375,-20.99609375,20.5078125,-55.17578125
126.796875,-48.828125,-29.296875,23.4375,-57.6171875
126.80078125,-45.8984375,-32.2265625,6.8359375,-41.9921875
126.8046875,-47.8515625,-25.87890625,5.859375,-24.90234375
126.80859375,-30.2734375,-31.73828125,-7.32421875,-31.73828125
126.8125,-18.06640625,-32.71484375,-8.30078125,-31.25
126.81640625,-21.97265625,-16.11328125,-4.39453125,-24.4140625
126.8203125,-21.484375,-12.20703125,-16.11328125,-33.69140625
126.82421875,-17.08984375,-25.390625,-12.6953125,-50.29296875
126.828125,-10.25390625,-37.109375,-2.44140625,-28.80859375
126.83203125,-2.9296875,-34.66796875,-8.7890625,-19.04296875
126.8359375,-2.9296875,-21.484375,-22.94921875,-32.71484375
126.83984375,-0.9765625,-16.11328125,-18.5546875,-1.953125
126.84375,14.16015625,-21.97265625,-19.53125,22.4609375
126.84765625,9.765625,-15.13671875,-15.13671875,21.484375
126.8515625,-10.7421875,-15.625,-6.8359375,-2.9296875
126.85546875,-15.13671875,-21.484375,0.48828125,-27.83203125
126.859375,-6.34765625,-14.16015625,1.953125,-16.6015625
126.86328125,-3.90625,-12.6953125,0.0,-0.48828125
126.8671875,-16.6015625,-13.671875,-6.34765625,1.953125
126.87109375,-7.32421875,-16.11328125,-10.25390625,-10.25390625
126.875,5.37109375,-19.04296875,-10.7421875,0.0
126.87890625,-2.9296875,-20.5078125,-17.578125,3.41796875
126.8828125,0.9765625,-18.5546875,-20.99609375,5.37109375
126.88671875,23.92578125,-12.20703125,-33.69140625,34.1796875
126.890625,18.5546875,-20.5078125,-23.92578125,20.99609375
126.89453125,-3.41796875,-37.59765625,-7.8125,0.48828125
126.8984375,-6.34765625,-41.015625,-20.5078125,5.37109375
126.90234375,-19.53125,-32.2265625,-32.71484375,17.08984375
126.90625,-5.37109375,-24.90234375,-24.4140625,30.76171875
126.91015625,0.9765625,-14.16015625,-18.5546875,37.109375
126.9140625,2.9296875,-11.71875,-20.99609375,26.85546875
126.91796875,3.90625,-27.34375,-7.32421875,2.9296875
126.921875,5.859375,-32.2265625,-2.44140625,-4.39453125
126.92578125,11.71875,-41.9921875,-8.7890625,-6.34765625
126.9296875,2.9296875,-31.25,-9.765625,7.8125
126.93359375,5.859375,3.90625,-24.4140625,12.6953125
126.9375,-4.39453125,-2.44140625,-26.3671875,-26.3671875
126.94140625,-5.859375,-11.71875,-16.11328125,-18.06640625
126.9453125,-8.7890625,-10.25390625,-7.8125,6.34765625
126.94921875,-14.6484375,-12.6953125,-15.13671875,2.9296875
126.953125,-19.53125,-16.11328125,-19.53125,6.8359375
126.95703125,-6.34765625,-20.01953125,-15.625,13.671875
126.9609375,1.46484375,-14.6484375,-13.18359375,26.85546875
126.96484375,-19.04296875,-15.13671875,0.9765625,-2.9296875
126.96875,-22.4609375,-22.94921875,-18.5546875,-9.27734375
126.97265625,-10.25390625,-14.6484375,-40.52734375,0.48828125
126.9765625,7.8125,-13.18359375,-18.5546875,1.953125
126.98046875,7.32421875,-19.53125,-12.6953125,12.6953125
126.984375,9.27734375,-13.18359375,-11.23046875,20.99609375
126.98828125,7.32421875,-17.08984375,6.34765625,12.20703125
126.9921875,-0.48828125,-29.296875,4.8828125,-5.859375
126.99609375,5.37109375,-24.90234375,-2.9296875,-8.30078125
127.0,2.9296875,-20.01953125,-9.27734375,-12.20703125
127.00390625,1.953125,-16.11328125,-21.484375,-9.765625
127.0078125,13.671875,-10.25390625,-20.99609375,0.9765625
127.01171875,9.765625,-18.06640625,-6.8359375,-2.44140625
127.015625,-4.8828125,-26.3671875,-20.5078125,-11.71875
127.01953125,3.41796875,-28.80859375,-28.3203125,-9.765625
127.0234375,12.6953125,-25.390625,-8.7890625,4.39453125
127.02734375,1.46484375,-16.6015625,-9.765625,-0.48828125
127.03125,-21.484375,-22.94921875,-23.4375,-17.578125
127.03515625,-29.296875,-20.99609375,-21.97265625,-28.3203125
127.0390625,-16.6015625,-8.30078125,-15.13671875,-21.484375
127.04296875,-5.37109375,-15.625,-8.7890625,-9.27734375
127.046875,-5.37109375,-22.94921875,-10.25390625,4.39453125
127.05078125,-3.90625,-20.01953125,-9.765625,-2.9296875
127.0546875,-1.953125,-30.2734375,-8.30078125,-15.13671875
127.05859375,-1.953125,-34.66796875,-18.5546875,-9.27734375
127.0625,-14.16015625,-22.4609375,-29.78515625,-4.39453125
127.06640625,-22.94921875,-16.6015625,-37.109375,-18.06640625
127.0703125,-9.765625,-13.671875,-25.390625,-9.27734375
127.07421875,-13.671875,-17.08984375,-14.6484375,-4.39453125
127.078125,-17.578125,-24.90234375,-19.04296875,-17.578125
127.08203125,9.765625,-20.01953125,-28.80859375,12.20703125
127.0859375,3.41796875,-14.16015625,-22.94921875,24.4140625
127.08984375,-12.6953125,-24.4140625,-7.32421875,-2.44140625
127.09375,-17.578125,-30.76171875,-11.23046875,-25.390625
127.09765625,-6.8359375,-28.3203125,-15.13671875,-11.23046875
127.1015625,-6.8359375,-23.4375,-5.37109375,-17.578125
127.10546875,-23.4375,-22.94921875,-1.953125,-39.55078125
127.109375,-23.4375,-25.390625,-6.8359375,-24.90234375
127.11328125,-18.5546875,-26.3671875,-7.32421875,-10.7421875
127.1171875,-22.94921875,-28.3203125,-9.27734375,3.90625
127.12109375,-25.390625,-28.3203125,-9.765625,-11.23046875
127.125,-22.4609375,-23.92578125,-12.6953125,-36.62109375
127.12890625,-20.5078125,-23.4375,-23.92578125,-27.34375
127.1328125,-11.71875,-25.87890625,-20.5078125,-17.578125
127.13671875,-38.57421875,-28.80859375,-27.34375,-23.92578125
127.140625,-36.62109375,-33.69140625,-33.203125,-10.25390625
127.14453125,5.859375,-25.390625,-17.08984375,-20.5078125
127.1484375,0.0,-15.625,-19.04296875,-35.15625
127.15234375,-6.8359375,-16.11328125,-37.59765625,-22.94921875
127.15625,-12.20703125,-24.90234375,-30.76171875,-14.6484375
127.16015625,-14.6484375,-29.296875,-17.578125,-22.94921875
127.1640625,-13.18359375,-23.92578125,-25.390625,-44.921875
127.16796875,-23.92578125,-20.5078125,-22.4609375,-27.83203125
127.171875,-20.99609375,-22.4609375,-19.04296875,-4.39453125
127.17578125,-22.4609375,-24.90234375,-29.78515625,-11.71875
127.1796875,-18.06640625,-22.94921875,-37.109375,-15.625
127.18359375,-23.4375,-24.90234375,-31.73828125,-25.390625
127.1875,-48.33984375,-21.484375,-31.73828125,-34.1796875
127.19140625,-19.53125,-20.99609375,-30.76171875,-19.04296875
127.1953125,-0.9765625,-30.2734375,-24.4140625,-13.18359375
127.19921875,-23.4375,-35.64453125,-28.3203125,-21.484375
127.203125,-25.87890625,-26.85546875,-24.90234375,-24.4140625
127.20703125,-46.875,-20.5078125,-23.4375,-17.08984375
127.2109375,-46.875,-28.3203125,-20.01953125,-23.4375
127.21484375,-28.3203125,-29.78515625,-22.94921875,-27.34375
127.21875,-7.32421875,-24.4140625,-45.41015625,-7.32421875
127.22265625,-2.9296875,-32.2265625,-32.2265625,-1.953125
127.2265625,-17.08984375,-40.52734375,-12.6953125,-22.4609375
127.23046875,-29.296875,-33.203125,-7.32421875,-46.875
127.234375,-36.62109375,-33.203125,1.953125,-53.22265625
127.23828125,-32.2265625,-28.80859375,5.859375,-17.08984375
127.2421875,-27.83203125,-20.5078125,1.953125,-20.01953125
127.24609375,-35.64453125,-25.390625,-16.11328125,-52.24609375
127.25,-33.203125,-39.0625,-20.99609375,-23.92578125
127.25390625,-25.390625,-41.9921875,-24.90234375,-5.859375
127.2578125,-28.80859375,-32.2265625,-38.0859375,-5.37109375
127.26171875,-28.80859375,-30.76171875,-36.1328125,-7.32421875
127.265625,-37.59765625,-21.484375,-23.4375,-21.484375
127.26953125,-38.0859375,-14.6484375,-14.6484375,-39.0625
127.2734375,-42.48046875,-20.99609375,-13.18359375,-46.38671875
127.27734375,-43.9453125,-22.4609375,-12.20703125,-26.3671875
127.28125,-39.0625,-25.390625,-20.5078125,-22.4609375
127.28515625,-31.25,-30.2734375,-24.90234375,-36.1328125
127.2890625,-24.4140625,-28.3203125,-20.01953125,-30.2734375
127.29296875,-34.66796875,-27.83203125,-25.87890625,-9.27734375
127.296875,-36.1328125,-27.83203125,-26.3671875,-11.23046875
127.30078125,-41.50390625,-14.16015625,-36.1328125,-11.71875
127.3046875,-36.62109375,-20.01953125,-42.96875,14.6484375
127.30859375,-16.6015625,-39.0625,-22.4609375,7.8125
127.3125,-21.97265625,-39.55078125,-22.4609375,-34.66796875
127.31640625,-37.109375,-33.203125,-27.83203125,-47.36328125
127.3203125,-34.1796875,-21.484375,-14.16015625,-44.43359375
127.32421875,-25.87890625,-18.06640625,-14.16015625,-42.96875
127.328125,-25.87890625,-17.578125,-19.04296875,-24.4140625
127.33203125,-20.99609375,-16.11328125,-17.08984375,-14.6484375
127.3359375,-35.64453125,-28.80859375,-28.3203125,-26.3671875
127.33984375,-25.390625,-36.1328125,-24.90234375,-27.83203125
127.34375,-17.08984375,-28.80859375,-17.578125,-14.16015625
127.34765625,-30.2734375,-22.4609375,-13.671875,-28.3203125
127.3515625,-25.390625,-20.5078125,-12.20703125,-17.08984375
127.35546875,-26.3671875,-27.34375,-14.6484375,20.01953125
127.359375,-18.5546875,-36.1328125,-13.671875,0.0
127.36328125,-4.39453125,-28.3203125,-15.13671875,-2.9296875
127.3671875,-12.6953125,-13.671875,-12.20703125,7.8125
127.37109375,-19.53125,-6.8359375,-10.7421875,1.46484375
127.375,-13.671875,-10.25390625,-18.5546875,-2.9296875
127.37890625,-5.37109375,-9.27734375,-25.87890625,-36.1328125
127.3828125,-6.34765625,-9.27734375,-28.3203125,-35.15625
127.38671875,-20.5078125,-18.5546875,-26.85546875,-15.13671875
127.390625,-28.3203125,-24.4140625,-17.08984375,-12.20703125
127.39453125,-11.23046875,-17.578125,-13.18359375,-4.39453125
127.3984375,0.9765625,-16.6015625,-3.41796875,-5.37109375
127.40234375,-16.11328125,-23.92578125,0.9765625,-6.8359375
127.40625,-4.39453125,-27.83203125,-2.9296875,18.5546875
127.41015625,17.08984375,-32.2265625,0.9765625,28.3203125
127.4140625,6.8359375,-28.80859375,-2.9296875,-27.34375
127.41796875,-11.71875,-19.04296875,-37.59765625,-41.50390625
127.421875,-16.6015625,-15.625,-38.0859375,-11.71875
127.42578125,-8.7890625,-15.13671875,1.953125,-29.78515625
127.4296875,2.44140625,-29.296875,5.859375,-21.97265625
127.43359375,-11.23046875,-35.64453125,3.41796875,0.9765625
127.4375,-11.71875,-28.80859375,8.30078125,3.41796875
127.44140625,1.46484375,-23.92578125,8.7890625,15.625
127.4453125,-6.8359375,-24.4140625,-6.8359375,-15.625
127.44921875,-6.8359375,-31.25,-14.6484375,-16.6015625
127.453125,-1.953125,-27.34375,-7.8125,0.9765625
127.45703125,-14.6484375,-18.5546875,-18.5546875,-8.30078125
127.4609375,-8.7890625,-20.99609375,-26.85546875,-7.8125
127.46484375,-5.859375,-24.4140625,-11.71875,-6.8359375
127.46875,-13.671875,-20.99609375,-7.8125,-20.5078125
127.47265625,-8.7890625,-21.484375,-4.39453125,-11.71875
127.4765625,-11.71875,-26.85546875,13.671875,-5.37109375
127.48046875,-12.20703125,-30.76171875,8.7890625,-1.46484375
127.484375,-8.7890625,-32.2265625,-7.8125,2.44140625
127.48828125,-20.5078125,-25.390625,-17.578125,-19.53125
127.4921875,-17.08984375,-18.5546875,-20.01953125,-23.92578125
127.49609375,-23.92578125,-25.87890625,-27.34375,-29.78515625
127.5,-21.97265625,-28.3203125,-23.4375,-21.97265625
127.50390625,-15.13671875,-26.3671875,-6.8359375,-19.04296875
127.5078125,-30.76171875,-21.97265625,-3.90625,-15.13671875
127.51171875,-34.66796875,-22.4609375,-9.27734375,-7.32421875
127.515625,-32.71484375,-33.203125,-25.390625,-20.01953125
127.51953125,-19.53125,-30.76171875,-40.52734375,-26.85546875
127.5234375,-16.11328125,-20.01953125,-32.2265625,-16.11328125
127.52734375,-41.9921875,-16.6015625,-23.92578125,-17.08984375
127.53125,-22.4609375,-13.671875,-22.4609375,-14.6484375
127.53515625,-2.9296875,-15.13671875,-22.4609375,-27.34375
127.5390625,-22.94921875,-20.99609375,-23.92578125,-28.3203125
127.54296875,-20.99609375,-21.97265625,-26.85546875,-5.37109375
127.546875,-9.27734375,-23.4375,-40.0390625,-14.6484375
127.55078125,-0.48828125,-26.3671875,-32.71484375,-22.94921875
127.5546875,4.8828125,-24.4140625,-20.99609375,-13.18359375
127.55859375,-5.37109375,-18.5546875,-30.76171875,-19.53125
127.5625,-21.484375,-18.06640625,-28.80859375,-21.484375
127.56640625,-28.80859375,-14.6484375,-26.3671875,-24.4140625
127.5703125,-27.83203125,-8.7890625,-51.26953125,-20.99609375
127.57421875,-18.06640625,-15.625,-38.0859375,-17.578125
127.578125,-14.6484375,-20.99609375,-16.6015625,-24.90234375
127.58203125,-21.484375,-22.4609375,-20.99609375,-27.34375
127.5859375,-32.71484375,-22.94921875,-28.3203125,-36.1328125
127.58984375,-16.11328125,-23.92578125,-38.57421875,-11.23046875
127.59375,11.23046875,-22.94921875,-37.109375,14.16015625
127.59765625,1.46484375,-14.6484375,-38.57421875,-9.765625
127.6015625,-23.92578125,-13.18359375,-35.15625,-37.109375
127.60546875,-10.25390625,-18.5546875,-31.25,-27.83203125
127.609375,0.0,-24.4140625,-30.2734375,-12.6953125
127.61328125,-15.13671875,-29.296875,-22.94921875,-28.3203125
127.6171875,-20.01953125,-27.34375,-22.4609375,-24.90234375
127.62109375,-20.99609375,-30.2734375,-30.76171875,-34.1796875
127.625,-10.7421875,-29.78515625,-23.92578125,-33.203125
127.62890625,-8.30078125,-20.99609375,-22.4609375,-11.23046875
127.6328125,-18.06640625,-19.04296875,-30.76171875,-22.94921875
127.63671875,-20.01953125,-26.3671875,-22.94921875,-22.94921875
127.640625,-16.6015625,-28.80859375,-23.92578125,-19.04296875
127.64453125,-20.5078125,-23.4375,-44.43359375,-49.8046875
127.6484375,-26.3671875,-24.4140625,-55.6640625,-59.08203125
127.65234375,-31.73828125,-22.4609375,-52.24609375,-51.7578125
127.65625,-34.66796875,-18.06640625,-48.33984375,-34.1796875
127.66015625,-18.5546875,-29.296875,-23.4375,-23.4375
127.6640625,-12.6953125,-21.484375,-4.39453125,-27.34375
127.66796875,-20.01953125,-14.16015625,-8.7890625,-21.484375
127.671875,-23.4375,-27.34375,-17.08984375,-25.390625
127.67578125,-35.64453125,-24.4140625,-20.99609375,-26.3671875
127.6796875,-39.55078125,-22.94921875,-21.97265625,-21.484375
127.68359375,-20.5078125,-30.2734375,-29.296875,-17.578125
127.6875,9.27734375,-25.390625,-37.59765625,-7.8125
127.69140625,-2.9296875,-21.484375,-33.69140625,-15.625
127.6953125,-25.87890625,-20.5078125,-23.92578125,-29.78515625
127.69921875,-22.4609375,-22.94921875,-20.5078125,-37.109375
127.703125,-16.6015625,-31.73828125,-22.4609375,-25.390625
127.70703125,-16.6015625,-30.2734375,-22.94921875,-9.765625
127.7109375,-21.484375,-26.3671875,-22.4609375,-11.23046875
127.71484375,-30.2734375,-33.203125,-25.390625,-35.64453125
127.71875,-21.97265625,-34.1796875,-29.78515625,-33.69140625
127.72265625,-3.41796875,-27.34375,-32.2265625,-16.11328125
127.7265625,-6.8359375,-31.73828125,-31.25,-23.92578125
127.73046875,-8.7890625,-26.3671875,-23.92578125,-11.71875
127.734375,-10.25390625,-20.01953125,-24.90234375,-10.7421875
127.73828125,-31.73828125,-25.390625,-27.34375,-18.06640625
127.7421875,-25.390625,-20.5078125,-26.85546875,-8.7890625
127.74609375,-11.71875,-18.5546875,-40.52734375,-26.3671875
127.75,-17.08984375,-22.4609375,-39.55078125,-25.87890625
127.75390625,-6.34765625,-23.4375,-22.4609375,3.90625
127.7578125,-12.20703125,-24.90234375,-21.484375,-11.71875
127.76171875,-14.16015625,-26.3671875,-31.73828125,-20.5078125
127.765625,-4.39453125,-33.203125,-29.296875,-12.6953125
127.76953125,-4.39453125,-36.62109375,-27.34375,-16.6015625
127.7734375,-12.20703125,-30.2734375,-31.73828125,-8.7890625
127.77734375,-13.671875,-30.2734375,-33.203125,-13.18359375
127.78125,-5.859375,-29.296875,-38.57421875,-23.92578125
127.78515625,-9.27734375,-23.4375,-36.62109375,-17.578125
127.7890625,-15.13671875,-24.4140625,-35.15625,-3.41796875
127.79296875,-16.6015625,-26.3671875,-39.0625,-4.8828125
127.796875,-10.25390625,-32.2265625,-34.1796875,-13.18359375
127.80078125,-9.765625,-33.203125,-21.97265625,-7.8125
127.8046875,-11.71875,-31.25,-22.4609375,-9.27734375
127.80859375,0.48828125,-25.390625,-18.5546875,-20.99609375
127.8125,5.37109375,-22.4609375,-16.11328125,-12.6953125
127.81640625,-14.6484375,-21.97265625,-35.64453125,-3.90625
127.8203125,-20.5078125,-16.6015625,-38.57421875,-7.32421875
127.82421875,-1.46484375,-20.99609375,-25.390625,-18.06640625
127.828125,5.37109375,-24.90234375,-18.06640625,3.41796875
127.83203125,-2.44140625,-21.97265625,-12.20703125,8.7890625
127.8359375,-14.16015625,-17.578125,-18.06640625,-17.08984375
127.83984375,4.39453125,-15.625,-41.015625,-2.9296875
127.84375,-15.13671875,-28.3203125,-48.828125,-3.41796875
127.84765625,-46.875,-29.78515625,-40.0390625,-18.5546875
127.8515625,-21.97265625,-18.5546875,-28.3203125,-27.83203125
127.85546875,-31.73828125,-20.99609375,-12.6953125,-7.32421875
127.859375,-36.62109375,-33.69140625,-6.34765625,-10.25390625
127.86328125,-21.97265625,-39.0625,-12.20703125,-48.828125
127.8671875,-38.0859375,-19.53125,-22.94921875,-44.921875
127.87109375,-56.640625,2.44140625,-32.71484375,-37.59765625
127.875,-36.62109375,2.44140625,-37.59765625,-48.33984375
127.87890625,-23.4375,-7.8125,-30.76171875,-61.03515625
127.8828125,-42.96875,-23.4375,-19.04296875,-59.08203125
127.88671875,-38.57421875,-27.34375,-16.6015625,-33.203125
127.890625,-36.1328125,-22.94921875,-28.3203125,5.859375
127.89453125,-27.34375,-24.90234375,-19.04296875,11.71875
127.8984375,-20.5078125,-20.01953125,-14.6484375,-2.9296875
127.90234375,-27.83203125,-23.92578125,-20.01953125,-21.484375
127.90625,-9.765625,-32.71484375,-11.71875,-57.12890625
127.91015625,-28.3203125,-14.16015625,-5.859375,-54.6875
127.9140625,-24.90234375,9.765625,-17.578125,-14.16015625
127.91796875,-28.3203125,-0.9765625,-37.59765625,-15.13671875
127.921875,-35.64453125,-17.08984375,-26.85546875,-48.33984375
127.92578125,-26.3671875,-17.578125,-2.44140625,-48.33984375
127.9296875,-18.5546875,-18.06640625,-19.53125,-33.203125
127.93359375,-15.13671875,-12.6953125,-27.34375,14.6484375
127.9375,-29.296875,-15.625,-3.90625,-8.7890625
127.94140625,-23.4375,-16.11328125,-2.9296875,-29.296875
127.9453125,-15.13671875,-6.8359375,-13.671875,-14.16015625
127.94921875,-20.5078125,-18.5546875,-25.390625,-68.359375
127.953125,-20.01953125,-24.4140625,-39.55078125,-47.36328125
127.95703125,-22.4609375,-24.4140625,-31.73828125,-7.8125
127.9609375,-38.57421875,-32.2265625,-6.34765625,-26.3671875
127.96484375,-53.22265625,-33.69140625,-8.30078125,-57.12890625
127.96875,-52.24609375,-36.1328125,-20.5078125,-50.78125
127.97265625,-35.64453125,-32.2265625,-16.11328125,-27.34375
127.9765625,-19.04296875,-17.08984375,-12.6953125,-24.4140625
127.98046875,-12.6953125,-9.27734375,-28.3203125,-23.4375
127.984375,-24.90234375,-18.06640625,-41.9921875,-21.484375
127.98828125,-28.3203125,-25.390625,-22.94921875,-25.390625
127.9921875,-22.94921875,-25.87890625,-10.7421875,-22.4609375
127.99609375,-20.5078125,-23.92578125,-21.97265625,-22.4609375
128.0,-9.27734375,-26.3671875,-20.01953125,-23.4375
128.00390625,-18.06640625,-35.64453125,-29.296875,-12.6953125
128.0078125,-42.48046875,-39.0625,-30.2734375,-15.625
128.01171875,-33.203125,-34.1796875,-30.2734375,-33.69140625
128.015625,-29.296875,-32.71484375,-40.52734375,-26.85546875
128.01953125,-42.48046875,-38.57421875,-34.66796875,-29.78515625
128.0234375,-24.4140625,-32.2265625,-38.57421875,-35.15625
128.02734375,-0.9765625,-19.04296875,-38.57421875,-23.92578125
128.03125,-4.39453125,-23.4375,-28.3203125,-25.87890625
128.03515625,-17.08984375,-24.4140625,-18.06640625,-3.41796875
128.0390625,-14.16015625,-30.76171875,-21.484375,1.46484375
128.04296875,-2.44140625,-49.31640625,-44.921875,-22.4609375
128.046875,12.20703125,-36.1328125,-43.45703125,9.27734375
128.05078125,2.9296875,-36.1328125,-25.390625,8.30078125
128.0546875,-0.9765625,-45.8984375,-9.27734375,-3.41796875
128.05859375,-8.7890625,-27.83203125,-1.953125,-7.8125
128.0625,-59.08203125,-21.484375,-12.20703125,-66.40625
128.06640625,-73.73046875,-23.4375,-18.5546875,-71.2890625
128.0703125,-49.31640625,-15.13671875,-22.94921875,-32.71484375
128.07421875,-48.828125,-18.06640625,-20.01953125,-46.875
128.078125,-54.6875,-23.4375,-23.4375,-53.22265625
128.08203125,-51.7578125,-27.83203125,-33.69140625,-62.98828125
128.0859375,-42.48046875,-40.0390625,-25.390625,-63.4765625
128.08984375,-44.921875,-41.9921875,-28.3203125,-56.15234375
128.09375,-55.6640625,-31.73828125,-36.1328125,-63.96484375
128.09765625,-53.22265625,-25.390625,-23.4375,-69.82421875
128.1015625,-48.828125,-21.97265625,-16.11328125,-70.3125
128.10546875,-29.296875,-20.5078125,-10.7421875,-44.921875
128.109375,-17.08984375,-26.85546875,-5.859375,-21.97265625
128.11328125,-33.69140625,-25.87890625,-12.6953125,-19.53125
128.1171875,-39.0625,-29.296875,-10.7421875,-57.12890625
128.12109375,-26.3671875,-37.109375,-11.23046875,-45.41015625
128.125,-26.3671875,-32.2265625,-16.11328125,-13.671875
128.12890625,-25.87890625,-28.3203125,-16.11328125,-20.01953125
128.1328125,-14.16015625,-23.92578125,-15.13671875,-17.08984375
128.13671875,-18.06640625,-20.01953125,-12.6953125,-9.765625
128.140625,-10.25390625,-13.671875,-30.2734375,-4.39453125
128.14453125,-22.94921875,-14.16015625,-46.875,-33.69140625
128.1484375,-45.41015625,-25.390625,-35.64453125,-66.89453125
128.15234375,-32.71484375,-38.0859375,-15.625,-52.734375
128.15625,-22.4609375,-41.015625,-0.9765625,-24.90234375
128.16015625,-34.1796875,-37.59765625,7.32421875,-24.4140625
128.1640625,-45.8984375,-40.52734375,-10.7421875,-22.94921875
128.16796875,-33.203125,-29.296875,-25.390625,-30.76171875
128.171875,-41.50390625,-11.23046875,-16.6015625,-23.4375
128.17578125,-43.45703125,-9.765625,-16.6015625,-27.34375
128.1796875,-37.59765625,-13.671875,-17.08984375,-48.828125
128.18359375,-56.640625,-20.99609375,-11.71875,-51.7578125
128.1875,-55.6640625,-26.3671875,-28.3203125,-38.57421875
128.19140625,-33.203125,-17.08984375,-32.71484375,-27.83203125
128.1953125,-39.55078125,-9.765625,-13.18359375,-27.34375
128.19921875,-62.01171875,-19.53125,-5.37109375,-55.6640625
128.203125,-62.98828125,-24.4140625,4.8828125,-63.4765625
128.20703125,-54.6875,-22.94921875,-0.48828125,-33.203125
128.2109375,-66.89453125,-31.25,-6.34765625,-72.265625
128.21484375,-77.1484375,-36.62109375,2.9296875,-87.890625
128.21875,-95.21484375,-31.73828125,-12.20703125,-49.8046875
128.22265625,-134.27734375,-38.57421875,-31.25,-95.21484375
128.2265625,-151.3671875,-49.8046875,-21.97265625,-144.04296875
128.23046875,-159.1796875,-48.828125,-4.39453125,-148.92578125
128.234375,-190.91796875,-39.0625,-4.39453125,-173.33984375
128.23828125,-192.3828125,-31.73828125,1.953125,-169.921875
128.2421875,-178.22265625,-24.90234375,-18.06640625,-150.87890625
128.24609375,-165.52734375,-20.5078125,-15.13671875,-139.6484375
128.25,-146.97265625,-25.390625,15.625,-151.85546875
128.25390625,-148.92578125,-35.64453125,23.92578125,-143.5546875
128.2578125,-119.62890625,-46.38671875,23.4375,-108.88671875
128.26171875,-94.7265625,-39.0625,-1.46484375,-89.35546875
128.265625,-104.4921875,-9.27734375,-22.94921875,-90.8203125
128.26953125,-121.58203125,0.48828125,-10.7421875,-116.2109375
128.2734375,-104.00390625,-16.11328125,0.0,-92.28515625
128.27734375,-55.17578125,-17.578125,-2.9296875,-48.33984375
128.28125,-41.015625,-23.92578125,6.34765625,-39.55078125
128.28515625,-41.9921875,-21.484375,20.99609375,-35.64453125
128.2890625,-24.4140625,-15.13671875,11.71875,-28.3203125
128.29296875,-14.16015625,-23.92578125,-13.671875,-21.484375
128.296875,-13.18359375,-14.16015625,-10.7421875,-16.11328125
128.30078125,-12.20703125,-13.671875,5.859375,-32.71484375
128.3046875,-3.41796875,-18.06640625,6.34765625,-15.13671875
128.30859375,9.27734375,-7.8125,-6.8359375,21.97265625
128.3125,15.625,-7.8125,-1.953125,14.16015625
128.31640625,12.20703125,-6.34765625,7.8125,-8.7890625
128.3203125,0.0,-3.90625,-1.46484375,-22.94921875
128.32421875,11.71875,-7.32421875,-3.41796875,2.9296875
128.328125,37.109375,-9.27734375,-4.8828125,17.578125
128.33203125,32.71484375,-12.6953125,-16.11328125,3.41796875
128.3359375,16.6015625,-12.20703125,-20.5078125,1.46484375
128.33984375,14.16015625,-11.23046875,-20.99609375,1.46484375
128.34375,27.34375,-11.23046875,-18.06640625,20.99609375
128.34765625,45.8984375,-7.32421875,-24.90234375,34.1796875
128.3515625,50.29296875,-3.90625,-40.0390625,26.85546875
128.35546875,38.0859375,-13.671875,-22.4609375,20.99609375
128.359375,34.66796875,-18.06640625,-9.27734375,12.6953125
128.36328125,41.015625,-8.7890625,-2.9296875,15.625
128.3671875,28.80859375,-6.8359375,0.0,13.671875
128.37109375,23.4375,-7.8125,-6.8359375,16.11328125
128.375,30.76171875,-5.37109375,-9.765625,30.2734375
128.37890625,15.625,-11.23046875,-16.11328125,17.08984375
128.3828125,-15.625,-19.04296875,-16.11328125,-5.37109375
128.38671875,-17.08984375,-16.11328125,-9.765625,-17.08984375
128.390625,10.25390625,-9.765625,-8.7890625,-16.11328125
128.39453125,10.25390625,-6.8359375,3.90625,-0.9765625
128.3984375,-9.27734375,-9.765625,2.44140625,-11.71875
128.40234375,-36.1328125,-17.08984375,-13.671875,-46.38671875
128.40625,-48.828125,-25.390625,-10.7421875,-49.31640625
128.41015625,-67.87109375,-28.80859375,-6.8359375,-69.3359375
128.4140625,-90.33203125,-31.25,-13.18359375,-116.2109375
128.41796875,-100.09765625,-33.69140625,-13.671875,-117.1875
128.421875,-113.76953125,-37.109375,-10.25390625,-118.65234375
128.42578125,-125.48828125,-41.50390625,-7.32421875,-116.69921875
128.4296875,-116.2109375,-41.50390625,-5.859375,-123.53515625
128.43359375,-99.609375,-47.36328125,-3.90625,-140.13671875
128.4375,-105.95703125,-40.52734375,1.46484375,-131.8359375
128.44140625,-116.2109375,-27.34375,-15.625,-125.9765625
128.4453125,-95.21484375,-23.4375,-11.71875,-109.375
128.44921875,-86.42578125,-18.06640625,-8.7890625,-96.6796875
128.453125,-82.03125,-12.6953125,-20.01953125,-93.75
128.45703125,-58.59375,-22.4609375,-10.25390625,-90.8203125
128.4609375,-32.2265625,-24.4140625,-18.06640625,-61.5234375
128.46484375,-14.6484375,-2.44140625,-20.01953125,-29.296875
128.46875,-3.41796875,6.8359375,4.8828125,-21.484375
128.47265625,9.765625,9.765625,0.48828125,3.41796875
128.4765625,17.08984375,4.8828125,-7.32421875,-11.23046875
128.48046875,6.34765625,-2.44140625,20.99609375,-27.83203125
128.484375,8.30078125,0.48828125,6.8359375,-12.20703125
128.48828125,11.23046875,-5.37109375,-26.85546875,-13.671875
128.4921875,11.71875,-6.8359375,-1.953125,4.8828125
128.49609375,31.25,-25.87890625,1.953125,10.25390625
128.5,36.62109375,-28.3203125,-6.34765625,12.20703125
128.50390625,35.64453125,2.9296875,20.5078125,43.9453125
128.5078125,40.0390625,16.11328125,26.3671875,73.2421875
128.51171875,49.8046875,20.99609375,14.6484375,28.80859375
128.515625,78.125,25.390625,-14.6484375,7.32421875
128.51953125,69.82421875,16.6015625,-16.11328125,22.4609375
128.5234375,40.0390625,0.9765625,-4.39453125,6.8359375
128.52734375,59.08203125,-7.32421875,-11.23046875,9.27734375
128.53125,96.6796875,-16.11328125,-14.16015625,47.36328125
128.53515625,93.26171875,-22.94921875,-11.23046875,42.96875
128.5390625,62.5,-9.27734375,-9.27734375,18.5546875
128.54296875,62.01171875,10.25390625,-19.04296875,46.875
128.546875,66.40625,13.671875,-43.9453125,51.26953125
128.55078125,58.59375,2.44140625,-31.73828125,25.390625
128.5546875,58.10546875,-9.27734375,-15.13671875,26.85546875
128.55859375,67.3828125,-18.5546875,-13.671875,47.8515625
128.5625,84.9609375,-19.04296875,-19.04296875,32.71484375
128.56640625,86.42578125,-1.953125,-13.18359375,46.875
128.5703125,74.21875,3.41796875,-5.859375,36.62109375
128.57421875,56.640625,-5.859375,-16.6015625,-7.8125
128.578125,66.89453125,1.46484375,-31.25,18.5546875
128.58203125,76.171875,5.859375,-25.87890625,24.90234375
128.5859375,63.4765625,-4.39453125,-2.9296875,16.11328125
128.58984375,71.2890625,-8.30078125,-0.9765625,16.6015625
128.59375,73.2421875,-5.37109375,-7.8125,25.390625
128.59765625,55.17578125,-10.25390625,-8.30078125,30.76171875
128.6015625,42.48046875,-16.11328125,-5.859375,19.04296875
128.60546875,59.08203125,-5.37109375,-13.671875,10.7421875
128.609375,79.58984375,-1.46484375,-9.27734375,15.625
128.61328125,67.87109375,-3.41796875,-2.9296875,5.37109375
128.6171875,64.453125,-3.90625,-6.34765625,4.39453125
128.62109375,54.6875,-7.32421875,-2.9296875,1.953125
128.625,43.45703125,-17.08984375,-11.71875,48.33984375
128.62890625,42.96875,-13.671875,-30.76171875,60.546875
128.6328125,50.78125,5.859375,-25.87890625,7.32421875
128.63671875,50.29296875,-1.46484375,-11.23046875,-19.04296875
128.640625,36.1328125,-6.34765625,-18.06640625,-16.11328125
128.64453125,36.62109375,3.90625,-14.6484375,-17.578125
128.6484375,48.33984375,4.8828125,-7.32421875,-23.4375
128.65234375,42.48046875,0.9765625,-19.53125,-8.30078125
128.65625,41.50390625,-4.39453125,-24.90234375,0.9765625
128.66015625,64.453125,-10.7421875,-13.671875,10.7421875
128.6640625,55.6640625,-9.765625,-10.7421875,-3.90625
128.66796875,38.57421875,-12.20703125,-9.765625,-3.41796875
128.671875,52.24609375,-7.8125,-11.71875,2.9296875
128.67578125,52.734375,-1.46484375,-23.4375,-5.37109375
128.6796875,62.98828125,-3.41796875,-27.83203125,3.41796875
128.68359375,84.9609375,2.9296875,-21.484375,-2.44140625
128.6875,88.37890625,3.41796875,-14.6484375,8.7890625
128.69140625,110.83984375,0.9765625,-16.11328125,50.29296875
128.6953125,112.79296875,-12.20703125,-46.38671875,42.48046875
128.69921875,90.8203125,-17.08984375,-47.8515625,19.04296875
128.703125,89.35546875,-2.44140625,-5.859375,45.41015625
128.70703125,103.02734375,7.32421875,9.27734375,32.71484375
128.7109375,112.3046875,10.25390625,3.90625,35.15625
128.71484375,92.7734375,-4.39453125,-12.20703125,45.8984375
128.71875,87.890625,-15.13671875,-26.3671875,30.76171875
128.72265625,98.6328125,0.48828125,-12.6953125,7.8125
128.7265625,102.5390625,1.46484375,20.99609375,0.0
128.73046875,101.5625,-7.32421875,19.04296875,13.671875
128.734375,63.96484375,-1.953125,-0.9765625,8.30078125
128.73828125,55.17578125,-2.44140625,3.90625,-13.671875
128.7421875,74.70703125,9.27734375,16.11328125,12.6953125
128.74609375,67.87109375,17.578125,7.32421875,21.97265625
128.75,76.66015625,14.6484375,2.44140625,-7.8125
128.75390625,92.7734375,14.16015625,10.7421875,14.16015625
128.7578125,103.515625,15.13671875,0.48828125,28.80859375
128.76171875,95.21484375,17.578125,-18.06640625,32.2265625
128.765625,56.640625,9.765625,-9.765625,-2.9296875
128.76953125,54.19921875,7.8125,-9.27734375,-16.11328125
128.7734375,80.56640625,10.7421875,-1.953125,10.7421875
128.77734375,80.078125,10.7421875,15.13671875,5.37109375
128.78125,78.61328125,9.27734375,22.94921875,-2.44140625
128.78515625,79.58984375,11.23046875,27.34375,-1.46484375
128.7890625,72.265625,6.34765625,19.04296875,2.9296875
128.79296875,70.3125,-2.44140625,11.71875,-2.44140625
128.796875,70.3125,1.953125,6.8359375,-8.7890625
128.80078125,81.0546875,0.0,6.8359375,-12.6953125
128.8046875,90.33203125,-8.30078125,7.32421875,-11.71875
128.80859375,83.0078125,-8.7890625,14.16015625,18.06640625
128.8125,76.171875,-2.44140625,12.20703125,39.55078125
128.81640625,70.3125,0.0,3.41796875,-12.6953125
128.8203125,76.171875,7.8125,-4.8828125,-17.578125
128.82421875,103.515625,18.06640625,-21.484375,21.97265625
128.828125,103.02734375,7.8125,1.46484375,23.4375
128.83203125,55.6640625,-1.953125,30.2734375,-2.9296875
128.8359375,33.203125,3.90625,23.4375,1.46484375
128.83984375,62.01171875,4.8828125,14.6484375,-3.41796875
128.84375,66.40625,4.8828125,1.953125,-15.625
128.84765625,60.05859375,1.46484375,1.953125,-5.37109375
128.8515625,76.171875,-4.39453125,8.7890625,2.44140625
128.85546875,84.47265625,-12.6953125,17.578125,15.625
128.859375,66.40625,-18.06640625,21.484375,8.7890625
128.86328125,69.82421875,-10.25390625,15.13671875,-3.41796875
128.8671875,77.63671875,11.71875,18.5546875,-4.8828125
128.87109375,71.2890625,16.6015625,4.8828125,8.7890625
128.875,85.44921875,4.39453125,3.90625,27.83203125
128.87890625,98.6328125,11.23046875,11.71875,24.90234375
128.8828125,80.56640625,11.71875,11.71875,12.6953125
128.88671875,55.17578125,4.8828125,26.3671875,28.3203125
128.890625,54.19921875,10.7421875,21.97265625,14.6484375
128.89453125,60.05859375,15.625,7.8125,-2.9296875
128.8984375,60.05859375,10.7421875,17.08984375,11.23046875
128.90234375,35.15625,1.46484375,27.34375,-12.20703125
128.90625,21.97265625,5.37109375,17.08984375,-15.13671875
128.91015625,61.03515625,12.20703125,-1.953125,11.23046875
128.9140625,65.91796875,0.9765625,5.859375,15.13671875
128.91796875,54.6875,-3.90625,27.34375,1.953125
128.921875,49.8046875,5.37109375,22.94921875,-1.953125
128.92578125,43.45703125,7.8125,17.578125,2.9296875
128.9296875,45.8984375,-0.48828125,17.578125,-11.23046875
128.93359375,56.640625,-7.8125,14.16015625,-11.71875
128.9375,49.8046875,-3.90625,14.16015625,1.953125
128.94140625,52.734375,-1.46484375,17.578125,8.7890625
128.9453125,58.59375,-0.48828125,16.6015625,9.27734375
128.94921875,46.38671875,2.9296875,12.20703125,-2.44140625
128.953125,37.109375,0.9765625,6.8359375,5.37109375
128.95703125,41.9921875,6.34765625,11.23046875,0.0
128.9609375,58.10546875,6.34765625,25.390625,4.8828125
128.96484375,68.84765625,3.41796875,19.04296875,42.96875
128.96875,64.94140625,-2.44140625,1.46484375,4.39453125
128.97265625,62.01171875,4.39453125,-2.9296875,-28.80859375
128.9765625,68.84765625,16.11328125,-7.32421875,17.08984375
128.98046875,63.4765625,9.765625,2.9296875,25.390625
128.984375,41.015625,8.30078125,19.04296875,-0.9765625
128.98828125,31.73828125,7.32421875,20.99609375,-1.46484375
128.9921875,41.9921875,5.37109375,18.06640625,4.39453125
128.99609375,49.8046875,11.71875,12.6953125,-0.48828125
129.0,50.78125,11.23046875,13.18359375,2.44140625
129.00390625,43.45703125,10.7421875,14.16015625,9.765625
129.0078125,33.203125,11.23046875,7.8125,18.5546875
129.01171875,41.9921875,4.39453125,5.37109375,19.53125
129.015625,58.10546875,-0.9765625,13.671875,5.859375
129.01953125,36.62109375,-5.37109375,11.23046875,-10.7421875
129.0234375,33.203125,-5.859375,2.9296875,2.44140625
129.02734375,66.40625,5.859375,-0.48828125,17.08984375
129.03125,77.1484375,12.20703125,3.90625,30.2734375
129.03515625,70.3125,5.37109375,27.34375,11.23046875
129.0390625,57.6171875,2.9296875,33.203125,-25.87890625
129.04296875,57.6171875,2.9296875,24.4140625,-3.41796875
129.046875,56.640625,12.20703125,21.97265625,20.5078125
129.05078125,57.6171875,16.6015625,22.4609375,12.6953125
129.0546875,63.4765625,18.06640625,14.6484375,8.30078125
129.05859375,69.82421875,12.20703125,3.41796875,35.64453125
129.0625,65.91796875,0.48828125,13.18359375,7.8125
129.06640625,45.41015625,-5.37109375,27.34375,-25.390625
129.0703125,44.921875,0.9765625,19.53125,-9.765625
129.07421875,37.59765625,12.20703125,16.6015625,-21.484375
129.078125,40.0390625,13.18359375,13.671875,-7.8125
129.08203125,53.22265625,13.671875,12.6953125,-4.8828125
129.0859375,77.63671875,13.18359375,12.20703125,-19.53125
129.08984375,87.40234375,17.08984375,9.27734375,0.48828125
129.09375,78.125,16.6015625,17.08984375,2.9296875
129.09765625,47.36328125,9.765625,22.4609375,-35.64453125
129.1015625,18.5546875,2.9296875,8.30078125,-10.25390625
129.10546875,38.0859375,5.859375,7.32421875,31.73828125
129.109375,45.8984375,14.16015625,29.78515625,-16.6015625
129.11328125,41.50390625,10.7421875,41.015625,-35.15625
129.1171875,26.85546875,3.41796875,42.96875,-26.3671875
129.12109375,26.85546875,5.859375,32.2265625,-28.3203125
129.125,26.3671875,8.30078125,20.5078125,-18.5546875
129.12890625,-0.48828125,2.9296875,22.4609375,-1.46484375
129.1328125,38.0859375,14.6484375,15.625,0.48828125
129.13671875,71.2890625,24.90234375,0.48828125,-15.13671875
129.140625,41.9921875,12.6953125,13.18359375,-31.73828125
129.14453125,27.34375,6.34765625,27.34375,-17.578125
129.1484375,15.13671875,6.34765625,30.2734375,-16.6015625
129.15234375,15.13671875,5.859375,39.55078125,-28.3203125
129.15625,22.4609375,6.34765625,35.64453125,-33.69140625
129.16015625,19.04296875,0.9765625,31.25,-40.52734375
129.1640625,8.7890625,-6.34765625,37.59765625,-33.69140625
129.16796875,11.71875,-3.90625,37.59765625,-17.08984375
129.171875,32.71484375,5.37109375,28.80859375,-14.6484375
129.17578125,27.83203125,4.39453125,28.80859375,-24.90234375
129.1796875,-1.953125,6.34765625,33.69140625,-36.62109375
129.18359375,7.32421875,17.578125,15.13671875,-21.97265625
129.1875,41.9921875,22.4609375,2.44140625,-0.48828125
129.19140625,21.484375,17.08984375,25.390625,-18.06640625
129.1953125,6.34765625,29.78515625,32.71484375,-22.94921875
129.19921875,17.578125,24.90234375,38.57421875,-23.92578125
129.203125,34.66796875,0.48828125,51.26953125,-18.5546875
129.20703125,41.015625,14.6484375,42.48046875,-9.27734375
129.2109375,14.6484375,23.4375,38.57421875,-2.44140625
129.21484375,4.39453125,7.8125,31.25,-19.53125
129.21875,-2.9296875,6.8359375,17.08984375,-34.66796875
129.22265625,-14.6484375,9.27734375,21.484375,-28.3203125
129.2265625,-20.99609375,13.18359375,17.08984375,-34.66796875
129.23046875,-17.08984375,8.7890625,8.7890625,-17.08984375
129.234375,-16.11328125,-1.953125,11.71875,-16.11328125
129.23828125,-12.20703125,-0.9765625,17.578125,-23.92578125
129.2421875,0.0,2.44140625,20.01953125,-16.11328125
129.24609375,-5.37109375,8.30078125,5.859375,-41.015625
129.25,-7.8125,2.9296875,4.8828125,-47.8515625
129.25390625,-7.32421875,-2.9296875,16.11328125,-35.64453125
129.2578125,3.90625,6.8359375,14.6484375,-25.87890625
129.26171875,33.69140625,12.6953125,-0.9765625,-0.9765625
129.265625,24.90234375,-2.9296875,5.37109375,-18.06640625
129.26953125,-2.44140625,-3.41796875,33.69140625,-20.99609375
129.2734375,3.90625,10.7421875,44.43359375,-17.578125
129.27734375,12.20703125,11.23046875,39.55078125,-32.71484375
129.28125,-0.9765625,16.6015625,26.85546875,-42.48046875
129.28515625,-17.578125,17.578125,14.16015625,-50.78125
129.2890625,-6.34765625,18.06640625,9.27734375,-36.62109375
129.29296875,-4.39453125,14.16015625,19.04296875,-36.1328125
129.296875,-25.390625,6.8359375,10.7421875,-48.33984375
129.30078125,-31.25,1.953125,0.9765625,-52.24609375
129.3046875,-24.4140625,-5.859375,17.578125,-55.17578125
129.30859375,-42.48046875,6.8359375,21.97265625,-45.41015625
129.3125,-23.4375,22.4609375,1.46484375,-32.71484375
129.31640625,8.7890625,16.11328125,7.32421875,-28.3203125
129.3203125,-16.6015625,3.41796875,14.6484375,-32.2265625
129.32421875,-37.109375,-8.30078125,13.671875,-61.03515625
129.328125,-18.5546875,-9.765625,3.41796875,-51.26953125
129.33203125,-4.8828125,-8.7890625,-17.08984375,-34.1796875
129.3359375,-35.64453125,-10.25390625,3.90625,-75.68359375
129.33984375,-35.15625,5.859375,23.92578125,-75.68359375
129.34375,-21.484375,14.16015625,35.15625,-20.01953125
129.34765625,-27.34375,0.9765625,68.359375,-35.64453125
129.3515625,-43.9453125,1.953125,60.05859375,-57.12890625
129.35546875,-39.0625,5.859375,38.0859375,-25.390625
129.359375,-34.66796875,5.37109375,48.828125,-25.87890625
129.36328125,-56.15234375,1.953125,46.38671875,-72.265625
129.3671875,-37.109375,3.90625,40.52734375,-68.359375
129.37109375,-32.71484375,11.71875,33.203125,-23.4375
129.375,-56.640625,8.30078125,31.25,-53.22265625
129.37890625,-43.9453125,4.8828125,52.734375,-62.01171875
129.3828125,-30.76171875,10.7421875,52.24609375,-42.96875
129.38671875,-28.3203125,9.27734375,47.36328125,-50.29296875
129.390625,-24.90234375,10.25390625,46.875,-49.8046875
129.39453125,-30.76171875,5.37109375,39.0625,-26.3671875
129.3984375,-31.73828125,-3.90625,43.45703125,-30.76171875
129.40234375,-47.36328125,-8.30078125,38.0859375,-57.6171875
129.40625,-71.2890625,-8.30078125,21.484375,-71.2890625
129.41015625,-53.7109375,-1.46484375,26.3671875,-54.19921875
129.4140625,-40.52734375,0.0,25.390625,-42.96875
129.41796875,-61.03515625,-3.41796875,25.390625,-61.03515625
129.421875,-69.3359375,-9.27734375,47.8515625,-63.4765625
129.42578125,-78.61328125,-16.11328125,51.7578125,-98.6328125
129.4296875,-110.3515625,-12.20703125,39.0625,-126.953125
129.43359375,-137.20703125,-8.7890625,46.38671875,-125.9765625
129.4375,-159.1796875,-19.53125,57.6171875,-137.20703125
129.44140625,-166.015625,-25.87890625,56.640625,-150.390625
129.4453125,-150.390625,-44.43359375,56.15234375,-147.94921875
129.44921875,-150.87890625,-50.78125,54.6875,-176.7578125
129.453125,-195.80078125,-21.97265625,62.98828125,-217.7734375
129.45703125,-200.68359375,-11.71875,81.54296875,-209.47265625
129.4609375,-180.17578125,-26.3671875,62.01171875,-198.2421875
129.46484375,-172.8515625,-17.578125,50.29296875,-182.12890625
129.46875,-163.0859375,-4.39453125,69.82421875,-177.24609375
129.47265625,-161.1328125,-12.6953125,62.01171875,-178.22265625
129.4765625,-130.859375,-13.671875,42.48046875,-143.5546875
129.48046875,-121.09375,2.44140625,35.64453125,-128.41796875
129.484375,-143.06640625,3.41796875,57.12890625,-146.484375
129.48828125,-142.578125,-5.859375,85.44921875,-151.3671875
129.4921875,-115.72265625,1.953125,80.078125,-128.41796875
129.49609375,-92.28515625,3.90625,60.546875,-94.7265625
129.5,-76.171875,-1.953125,59.08203125,-96.6796875
129.50390625,-61.5234375,-1.46484375,69.3359375,-86.9140625
129.5078125,-39.0625,-4.8828125,84.47265625,-53.22265625
129.51171875,-18.06640625,-1.953125,65.91796875,-38.57421875
129.515625,3.90625,0.48828125,39.55078125,-21.484375
129.51953125,1.953125,-0.9765625,49.31640625,-21.484375
129.5234375,-21.484375,-1.953125,53.22265625,-34.1796875
129.52734375,-5.859375,0.0,43.9453125,-37.109375
129.53125,8.30078125,-5.859375,30.2734375,-32.71484375
129.53515625,-2.9296875,-7.8125,12.20703125,-21.97265625
129.5390625,0.0,2.44140625,5.37109375,-17.578125
129.54296875,7.8125,15.13671875,-1.953125,-16.11328125
129.546875,4.8828125,14.6484375,-7.8125,-21.97265625
129.55078125,10.7421875,10.25390625,-21.97265625,11.23046875
129.5546875,20.01953125,3.90625,-41.015625,-2.9296875
129.55859375,38.57421875,0.48828125,-32.71484375,-17.578125
129.5625,53.22265625,-0.48828125,-8.7890625,22.4609375
129.56640625,43.45703125,-7.8125,1.46484375,7.32421875
129.5703125,34.1796875,-8.30078125,13.18359375,-11.71875
129.57421875,37.59765625,2.9296875,11.23046875,12.6953125
129.578125,46.875,9.765625,-3.41796875,40.0390625
129.58203125,35.15625,0.0,-8.30078125,15.625
129.5859375,29.78515625,-3.41796875,-13.18359375,-7.8125
129.58984375,41.50390625,-9.765625,-9.27734375,20.01953125
129.59375,38.0859375,-11.23046875,-3.90625,37.59765625
129.59765625,27.83203125,0.9765625,-1.953125,19.53125
129.6015625,23.4375,4.39453125,-11.71875,10.7421875
129.60546875,21.97265625,11.23046875,-6.8359375,30.76171875
129.609375,21.97265625,11.71875,2.9296875,39.0625
129.61328125,13.18359375,-4.8828125,4.39453125,24.4140625
129.6171875,4.39453125,-2.44140625,0.0,22.4609375
129.62109375,27.34375,-0.48828125,-23.4375,24.4140625
129.625,26.3671875,-12.6953125,-21.484375,21.484375
129.62890625,9.765625,-8.7890625,-2.44140625,14.16015625
129.6328125,8.7890625,6.34765625,1.46484375,-17.578125
129.63671875,13.18359375,8.7890625,-3.41796875,-22.4609375
129.640625,17.08984375,6.8359375,-8.7890625,11.23046875
129.64453125,18.06640625,4.39453125,-20.01953125,7.8125
129.6484375,20.99609375,0.0,-22.4609375,15.13671875
129.65234375,10.25390625,0.48828125,-18.5546875,18.06640625
129.65625,31.73828125,-1.46484375,-28.80859375,19.04296875
129.66015625,33.69140625,-7.32421875,-29.296875,45.8984375
129.6640625,-5.37109375,-11.23046875,-15.13671875,19.04296875
129.66796875,-0.48828125,-9.27734375,-28.3203125,-23.92578125
129.671875,-2.9296875,-0.9765625,-32.71484375,-12.6953125
129.67578125,-11.23046875,-4.8828125,-16.6015625,-5.37109375
129.6796875,-3.41796875,-9.765625,-9.27734375,-3.90625
129.68359375,-3.90625,-10.7421875,-6.8359375,3.41796875
129.6875,2.9296875,-11.23046875,-9.765625,18.06640625
129.69140625,17.578125,-3.41796875,-20.01953125,20.01953125
129.6953125,22.94921875,-0.9765625,-16.11328125,11.23046875
129.69921875,21.484375,1.46484375,-20.5078125,12.6953125
129.703125,-0.48828125,2.9296875,-33.203125,-2.9296875
129.70703125,-5.37109375,-10.25390625,-27.83203125,-5.859375
129.7109375,10.25390625,-18.5546875,-20.5078125,24.4140625
129.71484375,16.6015625,-3.41796875,-10.7421875,29.78515625
129.71875,13.671875,15.13671875,-8.30078125,16.11328125
129.72265625,-7.8125,7.32421875,-1.953125,-0.9765625
129.7265625,-8.7890625,-3.41796875,5.37109375,-8.7890625
129.73046875,11.23046875,-2.44140625,3.41796875,3.41796875
129.734375,14.16015625,-8.7890625,-0.48828125,12.20703125
129.73828125,1.953125,-16.11328125,-4.39453125,12.6953125
129.7421875,-7.8125,-19.53125,-3.90625,10.25390625
129.74609375,0.48828125,-14.6484375,-3.90625,3.90625
129.75,-2.44140625,-1.46484375,5.37109375,-6.8359375
129.75390625,-2.9296875,3.41796875,18.06640625,-7.8125
129.7578125,15.625,-4.39453125,8.30078125,18.06640625
129.76171875,17.578125,-15.13671875,0.9765625,12.6953125
129.765625,-1.953125,-16.6015625,12.6953125,-23.92578125
129.76953125,-19.53125,-9.765625,12.6953125,-23.92578125
129.7734375,-14.6484375,-11.71875,8.7890625,-16.6015625
129.77734375,-3.90625,-16.6015625,9.765625,-15.13671875
129.78125,-11.71875,-12.6953125,6.34765625,-24.90234375
129.78515625,-16.11328125,-7.32421875,10.25390625,-27.83203125
129.7890625,-15.13671875,-8.7890625,9.27734375,-6.34765625
129.79296875,-6.8359375,-10.7421875,8.30078125,-16.6015625
129.796875,2.44140625,-11.71875,14.16015625,-3.90625
129.80078125,-7.32421875,-14.6484375,7.32421875,6.8359375
129.8046875,-4.8828125,-9.27734375,-13.18359375,-17.578125
129.80859375,5.859375,-1.46484375,-37.59765625,-7.8125
129.8125,-13.671875,-1.46484375,-25.390625,-5.37109375
129.81640625,-30.2734375,-9.765625,5.37109375,-18.5546875
129.8203125,-26.85546875,-14.16015625,2.44140625,-17.08984375
129.82421875,-16.11328125,-14.6484375,6.8359375,1.953125
129.828125,-3.90625,-10.7421875,5.859375,-4.8828125
129.83203125,-7.8125,-2.44140625,-4.8828125,-16.11328125
129.8359375,-0.9765625,-3.90625,-1.46484375,-7.32421875
129.83984375,2.44140625,-9.27734375,-11.23046875,-11.23046875
129.84375,4.8828125,-8.30078125,-19.04296875,-8.7890625
129.84765625,-1.953125,-10.7421875,-24.90234375,0.0
129.8515625,-23.92578125,-19.53125,-29.78515625,-14.6484375
129.85546875,-11.23046875,-19.04296875,-20.99609375,-14.6484375
129.859375,-1.46484375,-10.25390625,-20.01953125,-7.32421875
129.86328125,-1.46484375,-7.32421875,-19.53125,-12.20703125
129.8671875,5.37109375,-13.671875,-22.4609375,-18.5546875
129.87109375,3.41796875,-16.11328125,-28.80859375,-17.578125
129.875,20.01953125,-15.13671875,-22.94921875,-6.8359375
129.87890625,10.7421875,-17.578125,-13.18359375,-16.6015625
129.8828125,-19.04296875,-18.06640625,-15.13671875,-31.73828125
129.88671875,-17.578125,-18.06640625,-16.6015625,-23.4375
129.890625,-9.765625,-29.78515625,-16.6015625,-13.671875
129.89453125,8.7890625,-39.0625,-20.5078125,0.0
129.8984375,4.8828125,-27.34375,-16.6015625,15.625
129.90234375,-36.62109375,-20.01953125,-31.25,-5.859375
129.90625,-43.45703125,-23.92578125,-37.109375,-27.34375
129.91015625,-20.99609375,-25.87890625,-21.484375,-12.6953125
129.9140625,-27.34375,-28.3203125,-20.01953125,-7.8125
129.91796875,-22.94921875,-14.16015625,-29.78515625,-12.20703125
129.921875,0.9765625,2.9296875,-42.96875,7.8125
129.92578125,-5.859375,-6.8359375,-26.85546875,11.23046875
129.9296875,-25.390625,-17.578125,-2.44140625,-9.27734375
129.93359375,-30.76171875,-17.578125,4.39453125,-19.53125
129.9375,-16.11328125,-18.5546875,3.41796875,-25.87890625
129.94140625,-5.859375,-20.5078125,-6.8359375,-28.80859375
129.9453125,-15.13671875,-24.4140625,-18.06640625,-23.4375
129.94921875,-19.04296875,-27.83203125,-11.71875,-13.671875
129.953125,-26.85546875,-25.390625,-8.30078125,-10.25390625
129.95703125,-21.484375,-21.484375,-13.671875,-23.4375
129.9609375,0.48828125,-23.4375,-16.11328125,-23.4375
129.96484375,-9.27734375,-26.3671875,-15.625,9.765625
129.96875,-29.296875,-15.13671875,-28.80859375,7.8125
129.97265625,-37.109375,-2.44140625,-43.45703125,-30.76171875
129.9765625,-50.78125,-8.7890625,-26.3671875,-28.3203125
129.98046875,-50.78125,-15.13671875,-20.99609375,-3.90625
129.984375,-36.62109375,-15.625,-28.3203125,-21.97265625
129.98828125,-57.12890625,-20.99609375,-15.625,-44.43359375
129.9921875,-55.17578125,-21.484375,0.0,-31.73828125
129.99609375,-20.99609375,-13.18359375,-2.44140625,-11.71875
130.0,-41.015625,-20.99609375,-12.20703125,-20.99609375
130.00390625,-41.9921875,-23.92578125,-17.578125,-34.66796875
130.0078125,-25.87890625,-10.7421875,-26.85546875,-8.30078125
130.01171875,-44.921875,-14.6484375,-29.78515625,-24.90234375
130.015625,-43.9453125,-27.83203125,-53.22265625,-41.015625
130.01953125,-42.96875,-16.6015625,-60.546875,-26.85546875
130.0234375,-40.52734375,-14.16015625,-17.578125,-24.90234375
130.02734375,-29.296875,-22.4609375,-4.39453125,-25.87890625
130.03125,-49.8046875,-12.20703125,-11.71875,-26.3671875
130.03515625,-51.7578125,-11.23046875,-5.859375,-12.6953125
130.0390625,-38.0859375,-14.16015625,-5.37109375,-33.69140625
130.04296875,-41.50390625,-17.08984375,-9.27734375,-47.36328125
130.046875,-23.92578125,-14.6484375,-15.13671875,-29.78515625
130.05078125,-35.64453125,-14.6484375,-23.4375,-15.625
130.0546875,-26.3671875,-23.4375,-28.3203125,7.32421875
130.05859375,-16.11328125,-18.5546875,-48.828125,-0.48828125
130.0625,-19.53125,-19.04296875,-43.45703125,-15.13671875
130.06640625,-32.71484375,-27.83203125,-14.16015625,-28.3203125
130.0703125,-50.78125,-19.04296875,-18.5546875,-50.78125
130.07421875,-38.57421875,-10.25390625,-18.06640625,-35.64453125
130.078125,-14.6484375,-8.7890625,-28.3203125,-8.30078125
130.08203125,-19.53125,-22.4609375,-32.71484375,-5.37109375
130.0859375,-35.64453125,-31.73828125,-20.99609375,-19.53125
130.08984375,-28.3203125,-23.4375,-40.52734375,-22.4609375
130.09375,-21.97265625,-17.08984375,-46.38671875,-13.18359375
130.09765625,-43.9453125,-25.87890625,-24.90234375,-21.484375
130.1015625,-50.78125,-32.2265625,-14.16015625,-22.94921875
130.10546875,-24.4140625,-26.3671875,-15.625,-8.30078125
130.109375,-13.18359375,-16.11328125,-25.87890625,0.9765625
130.11328125,-11.23046875,-2.9296875,-26.85546875,-6.34765625
130.1171875,-25.87890625,-8.7890625,-19.04296875,-9.27734375
130.12109375,-28.3203125,-18.06640625,-12.6953125,-16.11328125
130.125,-14.6484375,-16.6015625,-14.16015625,-5.859375
130.12890625,-21.484375,-15.625,-23.92578125,-5.859375
130.1328125,-46.38671875,-13.18359375,-35.64453125,-2.44140625
130.13671875,-44.43359375,-9.765625,-43.9453125,3.41796875
130.140625,-39.0625,-31.73828125,-41.9921875,-19.53125
130.14453125,-26.85546875,-41.50390625,-29.296875,-5.859375
130.1484375,-18.5546875,-22.94921875,-22.4609375,-11.23046875
130.15234375,-24.4140625,-11.23046875,-20.5078125,-37.109375
130.15625,-43.45703125,-15.13671875,-34.66796875,-38.57421875
130.16015625,-54.6875,-15.625,-35.64453125,-27.83203125
130.1640625,-55.6640625,-9.27734375,-21.97265625,-12.6953125
130.16796875,-52.734375,-5.37109375,-15.625,-25.87890625
130.171875,-40.52734375,-16.6015625,-31.25,-41.015625
130.17578125,-35.64453125,-29.78515625,-34.1796875,-18.5546875
130.1796875,-35.64453125,-23.92578125,-9.765625,-14.16015625
130.18359375,-45.8984375,-16.11328125,1.46484375,-25.87890625
130.1875,-32.2265625,-16.6015625,5.37109375,6.8359375
130.19140625,-21.97265625,-30.76171875,-4.39453125,-0.9765625
130.1953125,-37.59765625,-38.0859375,-8.30078125,-34.66796875
130.19921875,-37.109375,-40.52734375,-4.8828125,-18.5546875
130.203125,-11.23046875,-27.34375,-8.30078125,11.71875
130.20703125,-18.06640625,-6.8359375,8.7890625,10.25390625
130.2109375,-47.8515625,-1.953125,8.7890625,-26.3671875
130.21484375,-49.8046875,1.953125,0.9765625,-46.38671875
130.21875,-52.24609375,2.44140625,4.8828125,-37.59765625
130.22265625,-38.57421875,-6.34765625,-1.46484375,-32.71484375
130.2265625,-43.9453125,-19.04296875,-4.39453125,-20.99609375
130.23046875,-45.41015625,-24.4140625,-4.8828125,-15.13671875
130.234375,-20.01953125,-21.484375,-7.8125,-1.46484375
130.23828125,-6.34765625,-19.53125,-8.7890625,3.90625
130.2421875,-3.90625,-25.87890625,-5.37109375,-8.30078125
130.24609375,-32.71484375,-30.76171875,-2.44140625,-3.41796875
130.25,-31.73828125,-32.2265625,-6.34765625,3.90625
130.25390625,-22.4609375,-28.3203125,-17.578125,15.13671875
130.2578125,-34.1796875,-36.62109375,-6.34765625,-0.48828125
130.26171875,-51.7578125,-34.1796875,8.7890625,-16.6015625
130.265625,-58.10546875,-17.08984375,-5.37109375,-29.78515625
130.26953125,-49.8046875,-13.671875,-21.97265625,-41.9921875
130.2734375,-45.8984375,-8.7890625,-1.46484375,-26.3671875
130.27734375,-39.0625,-3.90625,14.16015625,-18.06640625
130.28125,-47.36328125,-11.23046875,9.27734375,-21.484375
130.28515625,-66.89453125,-24.90234375,2.9296875,-36.1328125
130.2890625,-47.36328125,-33.69140625,-2.44140625,-33.69140625
130.29296875,-24.90234375,-38.0859375,-0.9765625,-12.6953125
130.296875,-33.203125,-33.69140625,2.44140625,-4.8828125
130.30078125,-25.87890625,-29.296875,5.859375,-9.27734375
130.3046875,-16.11328125,-24.90234375,-14.6484375,-5.37109375
130.30859375,-10.7421875,-19.04296875,-38.57421875,7.32421875
130.3125,-27.83203125,-20.01953125,-26.85546875,7.32421875
130.31640625,-42.96875,-18.5546875,-17.578125,-19.53125
130.3203125,-20.01953125,-18.5546875,-7.8125,-23.4375
130.32421875,-10.25390625,-18.5546875,-1.46484375,0.9765625
130.328125,-9.765625,-21.97265625,-0.9765625,-1.46484375
130.33203125,-25.390625,-20.01953125,-0.48828125,-21.97265625
130.3359375,-40.52734375,-20.5078125,-2.44140625,-25.390625
130.33984375,-41.9921875,-33.69140625,2.9296875,-7.8125
130.34375,-35.15625,-29.78515625,7.32421875,-8.30078125
130.34765625,-29.296875,-29.296875,7.8125,-34.1796875
130.3515625,-39.55078125,-29.296875,-1.46484375,-35.15625
130.35546875,-65.4296875,-24.4140625,-5.859375,-46.875
130.359375,-87.40234375,-26.3671875,-8.7890625,-49.31640625
130.36328125,-93.75,-26.3671875,-18.5546875,-71.77734375
130.3671875,-94.7265625,-24.90234375,-23.4375,-111.81640625
130.37109375,-125.9765625,-34.1796875,-25.390625,-124.51171875
130.375,-148.4375,-41.9921875,-40.0390625,-130.859375
130.37890625,-154.296875,-37.59765625,-48.33984375,-145.99609375
130.3828125,-179.19921875,-33.69140625,-30.2734375,-163.0859375
130.38671875,-190.4296875,-47.8515625,-13.671875,-145.01953125
130.390625,-166.9921875,-62.98828125,-22.94921875,-125.9765625
130.39453125,-133.7890625,-52.734375,-62.5,-134.27734375
130.3984375,-134.765625,-34.1796875,-80.078125,-122.0703125
130.40234375,-149.90234375,-37.59765625,-77.63671875,-112.79296875
130.40625,-146.97265625,-55.17578125,-32.71484375,-128.41796875
130.41015625,-157.71484375,-36.1328125,27.34375,-157.71484375
130.4140625,-154.78515625,-10.7421875,36.62109375,-150.390625
130.41796875,-132.8125,-12.20703125,30.76171875,-140.625
130.421875,-125.48828125,-27.83203125,8.7890625,-115.234375
130.42578125,-78.61328125,-38.0859375,-14.16015625,-58.10546875
130.4296875,-49.31640625,-32.71484375,-22.94921875,-46.38671875
130.43359375,-89.35546875,-20.99609375,0.48828125,-43.45703125
130.4375,-90.33203125,-14.16015625,17.578125,-27.83203125
130.44140625,-45.8984375,-12.6953125,-13.18359375,-37.109375
130.4453125,-48.828125,-18.5546875,-20.99609375,-42.96875
130.44921875,-46.38671875,-25.87890625,-14.16015625,-26.85546875
130.453125,-20.5078125,-33.203125,-41.9921875,-26.85546875
130.45703125,-17.08984375,-27.83203125,-50.78125,-30.76171875
130.4609375,-29.296875,-23.92578125,-29.78515625,-8.30078125
130.46484375,-41.015625,-29.296875,-18.06640625,1.46484375
130.46875,-32.71484375,-20.5078125,-20.5078125,-1.46484375
130.47265625,-31.25,-15.13671875,-21.484375,8.30078125
130.4765625,-13.18359375,-24.90234375,-27.34375,-5.37109375
130.48046875,12.6953125,-25.87890625,-49.8046875,-4.39453125
130.484375,4.8828125,-18.5546875,-70.3125,20.01953125
130.48828125,-15.13671875,-20.99609375,-48.33984375,18.5546875
130.4921875,-14.16015625,-24.4140625,-40.0390625,-9.765625
130.49609375,-2.9296875,-25.87890625,-60.546875,-6.34765625
130.5,2.44140625,-25.87890625,-54.19921875,20.99609375
130.50390625,-14.16015625,-22.94921875,-41.9921875,17.578125
130.5078125,-14.16015625,-27.34375,-43.45703125,-1.46484375
130.51171875,26.85546875,-26.3671875,-65.4296875,19.53125
130.515625,14.16015625,-22.94921875,-62.5,20.5078125
130.51953125,-6.8359375,-30.2734375,-29.296875,3.41796875
130.5234375,6.34765625,-22.4609375,-25.390625,11.71875
130.52734375,-1.953125,-14.16015625,-26.3671875,46.38671875
130.53125,-4.8828125,-7.32421875,-28.3203125,12.20703125
130.53515625,-16.6015625,-4.39453125,-32.71484375,-9.27734375
130.5390625,-16.11328125,-0.48828125,-53.22265625,23.4375
130.54296875,-12.6953125,-0.9765625,-58.10546875,-3.41796875
130.546875,-8.7890625,-12.6953125,-25.390625,-11.71875
130.55078125,5.37109375,-18.5546875,-21.484375,-9.765625
130.5546875,20.5078125,-19.53125,-26.3671875,9.27734375
130.55859375,12.6953125,-21.484375,-20.5078125,28.80859375
130.5625,1.46484375,-25.390625,-24.90234375,43.45703125
130.56640625,15.13671875,-24.90234375,-28.80859375,25.87890625
130.5703125,9.27734375,-12.20703125,-32.71484375,-8.30078125
130.57421875,8.7890625,-8.7890625,-37.59765625,-1.953125
130.578125,5.37109375,-9.765625,-24.90234375,22.4609375
130.58203125,12.20703125,-0.9765625,-37.109375,25.87890625
130.5859375,19.53125,0.48828125,-38.0859375,9.765625
130.58984375,19.04296875,-4.8828125,-16.6015625,3.41796875
130.59375,13.18359375,-12.6953125,-24.90234375,14.6484375
130.59765625,-10.25390625,-25.87890625,-21.97265625,12.6953125
130.6015625,-5.859375,-33.69140625,-19.53125,-3.90625
130.60546875,3.41796875,-37.59765625,-29.78515625,17.08984375
130.609375,3.41796875,-31.73828125,-43.45703125,6.34765625
130.61328125,-1.953125,-13.671875,-47.36328125,-22.94921875
130.6171875,-11.71875,-3.90625,-35.64453125,7.32421875
130.62109375,-18.06640625,-14.16015625,-28.3203125,15.625
130.625,-12.20703125,-16.6015625,-27.83203125,-0.48828125
130.62890625,-10.7421875,-14.16015625,-22.94921875,15.13671875
130.6328125,-33.203125,-20.5078125,-39.55078125,13.671875
130.63671875,-26.85546875,-21.97265625,-50.29296875,23.4375
130.640625,-6.34765625,-29.296875,-31.25,10.25390625
130.64453125,-7.32421875,-27.34375,-29.78515625,15.625
130.6484375,-5.37109375,-19.53125,-41.015625,7.32421875
130.65234375,-8.7890625,-21.97265625,-30.2734375,-25.390625
130.65625,-44.43359375,-15.13671875,-37.59765625,-11.23046875
130.66015625,-44.921875,-7.32421875,-56.15234375,6.34765625
130.6640625,-14.6484375,-10.7421875,-53.22265625,7.8125
130.66796875,-25.390625,-23.4375,-45.41015625,0.0
130.671875,-32.71484375,-32.2265625,-28.80859375,-1.46484375
130.67578125,-18.06640625,-29.78515625,-33.69140625,-9.765625
130.6796875,4.39453125,-17.08984375,-49.8046875,-5.859375
130.68359375,8.30078125,-29.78515625,-51.26953125,4.39453125
130.6875,-15.625,-52.24609375,-43.45703125,-14.16015625
130.69140625,-31.73828125,-32.2265625,-62.5,2.44140625
130.6953125,-44.921875,-10.25390625,-75.1953125,-10.7421875
130.69921875,-12.6953125,-5.37109375,-54.19921875,0.48828125
130.703125,17.08984375,-7.8125,-36.62109375,26.85546875
130.70703125,-55.6640625,-20.5078125,-33.69140625,-41.015625
130.7109375,-89.84375,-31.73828125,-37.109375,-54.6875
130.71484375,-75.1953125,-32.2265625,-44.43359375,-31.73828125
130.71875,-70.80078125,-29.296875,-51.26953125,-52.24609375
130.72265625,-48.828125,-27.34375,-52.734375,-34.1796875
130.7265625,-40.0390625,-25.390625,-61.5234375,-34.1796875
130.73046875,-53.22265625,-34.1796875,-59.5703125,-37.109375
130.734375,-77.1484375,-36.62109375,-60.546875,-68.359375
130.73828125,-78.61328125,-23.4375,-55.17578125,-61.5234375
130.7421875,-66.40625,-10.7421875,-57.6171875,-16.6015625
130.74609375,-46.38671875,-15.13671875,-51.26953125,-11.23046875
130.75,-47.8515625,-28.3203125,-32.71484375,-18.5546875
130.75390625,-61.03515625,-31.73828125,-43.9453125,-53.7109375
130.7578125,-54.6875,-25.390625,-38.57421875,-52.734375
130.76171875,-51.26953125,-27.34375,-30.2734375,-33.203125
130.765625,-36.62109375,-27.34375,-38.57421875,-24.90234375
130.76953125,-26.3671875,-23.4375,-41.9921875,-7.8125
130.7734375,-40.0390625,-15.13671875,-66.89453125,-21.97265625
130.77734375,-34.1796875,-12.6953125,-53.7109375,-33.203125
130.78125,-29.78515625,-15.625,-29.296875,-47.8515625
130.78515625,-43.9453125,-13.671875,-40.52734375,-49.31640625
130.7890625,-31.73828125,-14.6484375,-32.71484375,-21.484375
130.79296875,-26.85546875,-9.765625,-41.50390625,-3.41796875
130.796875,-30.2734375,-7.32421875,-64.453125,6.34765625
130.80078125,-32.71484375,-15.13671875,-61.03515625,-7.32421875
130.8046875,-62.98828125,-21.484375,-70.3125,-20.01953125
130.80859375,-54.19921875,-21.484375,-59.08203125,-14.16015625
130.8125,-35.64453125,-25.390625,-41.015625,-37.109375
130.81640625,-33.203125,-19.53125,-45.41015625,-43.9453125
130.8203125,-44.43359375,-12.6953125,-43.45703125,-47.36328125
130.82421875,-36.1328125,-16.11328125,-28.80859375,-38.57421875
130.828125,-20.01953125,-15.13671875,-24.90234375,-18.06640625
130.83203125,-19.04296875,-13.671875,-25.87890625,-14.16015625
130.8359375,-24.90234375,-8.30078125,-26.85546875,-25.390625
130.83984375,-16.6015625,5.859375,-43.9453125,-14.6484375
130.84375,-13.18359375,-4.8828125,-42.96875,-14.6484375
130.84765625,-23.92578125,-19.53125,-36.62109375,-21.484375
130.8515625,-37.59765625,-24.90234375,-42.48046875,-20.01953125
130.85546875,-42.96875,-25.390625,-42.48046875,-37.109375
130.859375,-33.69140625,-27.34375,-36.1328125,-19.53125
130.86328125,-30.76171875,-22.94921875,-49.8046875,-20.01953125
130.8671875,-25.390625,-15.625,-62.5,-39.55078125
130.87109375,-30.2734375,-20.99609375,-43.45703125,-23.4375
130.875,-32.2265625,-20.99609375,-38.0859375,-14.16015625
130.87890625,-26.85546875,-22.4609375,-45.8984375,-23.4375
130.8828125,-25.87890625,-23.4375,-47.36328125,-11.23046875
130.88671875,-41.9921875,-13.18359375,-42.96875,-3.90625
130.890625,-37.59765625,-11.71875,-36.1328125,-25.390625
130.89453125,-8.7890625,-12.20703125,-39.0625,5.859375
130.8984375,-21.484375,-12.6953125,-46.875,-9.765625
130.90234375,-48.828125,-30.76171875,-41.9921875,-60.05859375
130.90625,-49.8046875,-33.203125,-35.64453125,-33.69140625
130.91015625,-30.76171875,-11.71875,-36.1328125,-15.625
130.9140625,-1.953125,-4.8828125,-39.0625,-4.8828125
130.91796875,-50.29296875,-19.04296875,-30.76171875,-28.3203125
130.921875,-81.54296875,-29.296875,-22.4609375,-41.015625
130.92578125,-55.17578125,-24.4140625,-26.85546875,-30.2734375
130.9296875,-56.640625,-19.04296875,-27.83203125,-30.2734375
130.93359375,-52.24609375,-19.53125,-23.4375,-14.16015625
130.9375,-45.8984375,-25.390625,-33.69140625,-21.484375
130.94140625,-31.25,-30.2734375,-38.0859375,-17.578125
130.9453125,-6.34765625,-26.3671875,-37.109375,7.8125
130.94921875,-9.765625,-24.90234375,-51.26953125,5.37109375
130.953125,-25.390625,-26.85546875,-40.52734375,-17.578125
130.95703125,-22.4609375,-30.76171875,-35.15625,-26.3671875
130.9609375,-31.73828125,-32.2265625,-39.0625,-19.53125
130.96484375,-45.41015625,-30.2734375,-35.64453125,-7.8125
130.96875,-47.8515625,-38.57421875,-38.57421875,-6.8359375
130.97265625,-41.9921875,-42.48046875,-41.50390625,-10.25390625
130.9765625,-37.59765625,-36.1328125,-40.52734375,0.48828125
130.98046875,-41.50390625,-38.0859375,-41.50390625,-14.16015625
130.984375,-36.62109375,-42.48046875,-36.62109375,-16.11328125
130.98828125,-37.59765625,-32.71484375,-31.73828125,-16.11328125
130.9921875,-54.19921875,-23.92578125,-51.26953125,-22.4609375
130.99609375,-44.921875,-27.83203125,-56.15234375,-8.7890625
131.0,-35.15625,-29.78515625,-40.52734375,-7.32421875
131.00390625,-42.48046875,-30.76171875,-34.1796875,-6.8359375
131.0078125,-42.96875,-27.34375,-28.80859375,-3.90625
131.01171875,-46.38671875,-20.5078125,-40.52734375,-17.08984375
131.015625,-55.17578125,-19.04296875,-40.52734375,0.0
131.01953125,-48.828125,-21.97265625,-23.4375,-12.20703125
131.0234375,-46.38671875,-25.87890625,-16.11328125,-26.85546875
131.02734375,-46.875,-34.1796875,-29.296875,-8.7890625
131.03125,-36.62109375,-34.66796875,-51.7578125,-5.859375
131.03515625,-39.0625,-22.94921875,-48.828125,-3.90625
131.0390625,-34.66796875,-19.04296875,-36.1328125,-2.9296875
131.04296875,-13.671875,-19.04296875,-44.43359375,-15.625
131.046875,0.9765625,-23.4375,-59.08203125,-17.08984375
131.05078125,12.20703125,-31.73828125,-49.8046875,5.859375
131.0546875,-19.53125,-29.78515625,-27.34375,-2.44140625
131.05859375,-58.59375,-29.296875,-3.41796875,-27.83203125
131.0625,-20.99609375,-26.3671875,-16.11328125,-5.37109375
131.06640625,-11.71875,-27.83203125,-47.8515625,5.859375
131.0703125,-29.296875,-35.64453125,-43.9453125,0.48828125
131.07421875,2.44140625,-31.73828125,-19.53125,24.4140625
131.078125,17.578125,-26.3671875,-21.97265625,35.15625
131.08203125,20.01953125,-25.390625,-20.01953125,48.33984375
131.0859375,20.99609375,-27.83203125,-2.9296875,55.6640625
131.08984375,13.18359375,-30.76171875,-8.7890625,41.50390625
131.09375,32.71484375,-29.296875,-8.30078125,41.9921875
131.09765625,38.0859375,-31.25,-10.7421875,67.87109375
131.1015625,30.76171875,-34.1796875,-20.5078125,105.95703125
131.10546875,43.45703125,-30.2734375,-19.04296875,76.66015625
131.109375,29.78515625,-27.34375,-15.625,51.7578125
131.11328125,16.6015625,-35.15625,-23.4375,54.19921875
131.1171875,30.2734375,-38.0859375,-31.73828125,34.66796875
131.12109375,29.296875,-39.0625,-32.71484375,51.26953125
131.125,23.4375,-51.7578125,-32.71484375,61.03515625
131.12890625,33.203125,-57.6171875,-38.0859375,58.59375
131.1328125,30.76171875,-48.33984375,-43.45703125,29.296875
131.13671875,8.30078125,-45.41015625,-24.90234375,20.5078125
131.140625,-5.37109375,-42.48046875,-9.27734375,26.3671875
131.14453125,-9.765625,-38.57421875,-11.23046875,17.08984375
131.1484375,-2.9296875,-34.66796875,-11.23046875,10.7421875
131.15234375,-6.8359375,-35.64453125,-14.16015625,22.94921875
131.15625,-20.01953125,-36.1328125,-22.4609375,9.27734375
131.16015625,-12.20703125,-39.55078125,-10.25390625,-0.48828125
131.1640625,-10.25390625,-39.0625,-6.34765625,6.34765625
131.16796875,-18.06640625,-28.80859375,-29.296875,9.27734375
131.171875,-21.97265625,-36.62109375,-42.48046875,11.71875
131.17578125,-17.08984375,-44.43359375,-30.76171875,-17.08984375
131.1796875,-10.7421875,-42.48046875,-10.25390625,-28.3203125
131.18359375,-17.578125,-41.50390625,-8.7890625,-16.6015625
131.1875,-14.16015625,-35.64453125,-17.08984375,3.90625
131.19140625,-9.765625,-36.62109375,-18.5546875,6.34765625
131.1953125,-9.27734375,-36.62109375,-15.625,-0.48828125
131.19921875,-16.6015625,-40.0390625,-18.5546875,16.6015625
131.203125,-20.5078125,-44.921875,-12.20703125,8.7890625
131.20703125,-15.13671875,-40.52734375,-26.3671875,-0.48828125
131.2109375,-12.20703125,-37.59765625,-41.015625,4.8828125
131.21484375,-15.625,-34.66796875,-9.27734375,5.37109375
131.21875,-25.390625,-35.15625,-2.44140625,2.44140625
131.22265625,-19.53125,-27.34375,-6.34765625,-6.8359375
131.2265625,-9.765625,-22.94921875,9.765625,8.30078125
131.23046875,-22.94921875,-46.875,10.25390625,0.9765625
131.234375,-27.34375,-47.8515625,-4.39453125,-24.4140625
131.23828125,-19.53125,-31.25,-32.71484375,-15.13671875
131.2421875,-26.85546875,-31.73828125,-27.34375,5.859375
131.24609375,-49.31640625,-29.296875,1.953125,-13.671875
131.25,-27.34375,-24.90234375,-0.9765625,-19.04296875
131.25390625,-21.484375,-23.92578125,-2.44140625,-2.44140625
131.2578125,-47.36328125,-31.25,1.46484375,21.484375
131.26171875,-17.578125,-38.0859375,0.9765625,29.78515625
131.265625,-7.8125,-33.203125,2.9296875,1.46484375
131.26953125,-21.97265625,-20.99609375,-8.7890625,-13.671875
131.2734375,-28.80859375,-21.97265625,-24.4140625,-22.4609375
131.27734375,-34.66796875,-34.1796875,-17.578125,-35.64453125
131.28125,-41.50390625,-33.203125,-12.6953125,-17.578125
131.28515625,-53.22265625,-35.64453125,-12.20703125,-7.8125
131.2890625,-22.4609375,-36.62109375,-2.44140625,-19.04296875
131.29296875,-19.53125,-28.80859375,-7.32421875,-23.4375
131.296875,-44.921875,-24.90234375,-19.04296875,-20.99609375
131.30078125,-38.0859375,-28.3203125,-19.04296875,-5.859375
131.3046875,-41.9921875,-25.87890625,-21.97265625,-4.8828125
131.30859375,-35.64453125,-25.87890625,-20.99609375,-22.4609375
131.3125,-8.30078125,-23.4375,-18.5546875,-13.671875
131.31640625,6.8359375,-20.01953125,-43.45703125,1.46484375
131.3203125,-16.6015625,-26.85546875,-24.90234375,-20.5078125
131.32421875,-37.59765625,-30.76171875,7.8125,-24.4140625
131.328125,-30.2734375,-28.80859375,7.8125,5.859375
131.33203125,-28.80859375,-35.64453125,-2.9296875,-2.44140625
131.3359375,-27.34375,-42.96875,-8.7890625,1.46484375
131.33984375,-19.53125,-35.15625,-2.44140625,6.34765625
131.34375,-24.90234375,-26.85546875,-20.01953125,-2.9296875
131.34765625,-5.37109375,-27.34375,-25.87890625,23.4375
131.3515625,0.0,-33.203125,-14.6484375,14.6484375
131.35546875,-29.296875,-44.43359375,-11.23046875,-8.30078125
131.359375,-26.3671875,-43.9453125,-13.671875,-8.30078125
131.36328125,-3.90625,-44.43359375,-16.11328125,1.46484375
131.3671875,-8.30078125,-46.38671875,-19.04296875,-10.25390625
131.37109375,-33.69140625,-31.73828125,-24.90234375,-12.20703125
131.375,-50.78125,-18.5546875,-22.94921875,-8.7890625
131.37890625,-31.25,-20.99609375,-18.06640625,-9.27734375
131.3828125,-15.13671875,-25.87890625,-23.4375,-16.11328125
131.38671875,-43.45703125,-27.83203125,-32.71484375,-21.97265625
131.390625,-43.45703125,-32.2265625,-28.80859375,-7.8125
131.39453125,-35.15625,-25.390625,-24.4140625,-1.953125
131.3984375,-41.015625,-23.92578125,-29.296875,-8.7890625
131.40234375,-2.9296875,-20.5078125,-36.62109375,-9.765625
131.40625,29.78515625,-23.4375,-20.99609375,-6.8359375
131.41015625,8.7890625,-36.62109375,-6.34765625,-8.7890625
131.4140625,-8.30078125,-37.59765625,-18.5546875,-20.99609375
131.41796875,-8.30078125,-30.2734375,-16.11328125,-25.390625
131.421875,-22.4609375,-21.97265625,-4.8828125,-29.78515625
131.42578125,-37.59765625,-23.4375,-1.46484375,-19.53125
131.4296875,-41.9921875,-28.3203125,-5.859375,7.32421875
131.43359375,-7.32421875,-21.97265625,-27.34375,-20.01953125
131.4375,15.13671875,-27.34375,-39.55078125,4.8828125
131.44140625,15.13671875,-57.12890625,-22.94921875,36.1328125
131.4453125,28.3203125,-50.78125,-9.27734375,29.296875
131.44921875,3.90625,-23.4375,-10.25390625,6.8359375
131.453125,-50.78125,-20.99609375,-25.87890625,-64.453125
131.45703125,-79.58984375,-34.1796875,-28.3203125,-95.21484375
131.4609375,-78.125,-47.36328125,-26.85546875,-75.68359375
131.46484375,-111.328125,-55.6640625,-43.45703125,-80.56640625
131.46875,-148.4375,-38.0859375,-56.15234375,-122.55859375
131.47265625,-192.87109375,-14.16015625,-49.31640625,-175.29296875
131.4765625,-223.6328125,-34.1796875,-24.90234375,-214.35546875
131.48046875,-209.47265625,-39.0625,-32.71484375,-210.9375
131.484375,-222.16796875,-19.53125,-26.3671875,-208.984375
131.48828125,-248.53515625,-25.87890625,-17.08984375,-207.51953125
131.4921875,-247.55859375,-35.64453125,-39.0625,-223.14453125
131.49609375,-209.47265625,-27.34375,-54.6875,-208.984375
131.5,-207.03125,-27.83203125,-50.78125,-202.1484375
131.50390625,-217.7734375,-31.25,-35.15625,-219.7265625
131.5078125,-184.08203125,-33.203125,-28.3203125,-185.546875
131.51171875,-164.55078125,-32.2265625,-25.87890625,-169.921875
131.515625,-145.01953125,-28.80859375,-31.73828125,-144.53125
131.51953125,-116.2109375,-32.2265625,-42.96875,-122.55859375
131.5234375,-104.00390625,-29.78515625,-51.7578125,-112.3046875
131.52734375,-89.35546875,-31.25,-54.6875,-82.51953125
131.53125,-83.984375,-30.76171875,-40.52734375,-75.68359375
131.53515625,-83.49609375,-22.4609375,-42.96875,-63.96484375
131.5390625,-70.3125,-16.6015625,-49.8046875,-55.6640625
131.54296875,-69.3359375,-12.6953125,-25.390625,-63.4765625
131.546875,-84.9609375,-14.6484375,-20.01953125,-78.61328125
131.55078125,-95.21484375,-15.625,-22.4609375,-66.89453125
131.5546875,-77.63671875,-3.41796875,-29.78515625,-65.4296875
131.55859375,-56.15234375,-12.20703125,-40.52734375,-92.28515625
131.5625,-57.6171875,-27.34375,-49.31640625,-60.546875
131.56640625,-61.5234375,-20.99609375,-60.05859375,-37.109375
131.5703125,-62.98828125,-17.578125,-47.8515625,-47.8515625
131.57421875,-62.98828125,-21.484375,-36.1328125,-50.29296875
131.578125,-62.01171875,-20.99609375,-42.48046875,-44.43359375
131.58203125,-54.19921875,-20.01953125,-45.41015625,-41.50390625
131.5859375,-58.59375,-24.4140625,-39.55078125,-42.96875
131.58984375,-60.05859375,-28.80859375,-41.015625,-46.38671875
131.59375,-52.24609375,-25.390625,-37.109375,-36.62109375
131.59765625,-68.84765625,-19.04296875,-33.69140625,-35.64453125
131.6015625,-82.51953125,-10.25390625,-46.38671875,-25.87890625
131.60546875,-63.4765625,-11.23046875,-42.48046875,-10.25390625
131.609375,-43.45703125,-27.83203125,-29.296875,-42.48046875
131.61328125,-38.0859375,-23.92578125,-37.109375,-42.96875
131.6171875,-33.69140625,-6.34765625,-52.24609375,-23.4375
131.62109375,-38.0859375,-2.44140625,-36.1328125,-36.1328125
131.625,-51.26953125,-3.90625,-30.2734375,-41.50390625
131.62890625,-47.36328125,-9.27734375,-34.1796875,-22.4609375
131.6328125,-46.875,-17.578125,-24.90234375,-31.25
131.63671875,-49.8046875,-22.4609375,-26.3671875,-45.8984375
131.640625,-66.89453125,-9.27734375,-35.64453125,-39.55078125
131.64453125,-78.61328125,1.46484375,-36.1328125,-26.85546875
131.6484375,-66.89453125,-2.44140625,-26.85546875,-22.4609375
131.65234375,-36.1328125,-15.625,-28.3203125,-34.66796875
131.65625,-23.92578125,-23.4375,-31.25,-37.59765625
131.66015625,-38.57421875,-17.08984375,-29.296875,-32.2265625
131.6640625,-25.87890625,-17.08984375,-34.66796875,-11.71875
131.66796875,-29.78515625,-21.484375,-24.90234375,-11.23046875
131.671875,-45.8984375,-24.90234375,-6.34765625,-13.18359375
131.67578125,-33.203125,-15.625,-6.34765625,-3.41796875
131.6796875,-31.73828125,-3.90625,-9.765625,-2.9296875
131.68359375,-47.36328125,-2.44140625,-21.97265625,-23.4375
131.6875,-57.6171875,-10.7421875,-33.203125,-44.43359375
131.69140625,-45.41015625,-18.06640625,-29.78515625,-33.203125
131.6953125,-24.4140625,-20.99609375,-25.390625,-15.625
131.69921875,-20.5078125,-27.83203125,-18.06640625,-30.2734375
131.703125,-19.04296875,-26.85546875,-17.08984375,-26.3671875
131.70703125,-32.71484375,-25.390625,-26.85546875,-18.5546875
131.7109375,-38.57421875,-25.390625,-35.15625,-36.62109375
131.71484375,-43.9453125,-30.2734375,-31.25,-15.13671875
131.71875,-42.48046875,-34.1796875,-36.62109375,-9.27734375
131.72265625,-32.2265625,-35.64453125,-43.45703125,-17.578125
131.7265625,-38.0859375,-33.203125,-38.57421875,-1.46484375
131.73046875,-24.90234375,-30.76171875,-38.0859375,0.48828125
131.734375,-26.3671875,-32.71484375,-39.0625,-15.625
131.73828125,-42.48046875,-33.69140625,-41.50390625,-28.3203125
131.7421875,-18.06640625,-30.2734375,-56.640625,-4.39453125
131.74609375,-15.13671875,-15.13671875,-58.59375,0.48828125
131.75,-34.66796875,-12.6953125,-41.9921875,-22.4609375
131.75390625,-51.7578125,-22.94921875,-37.109375,-29.296875
131.7578125,-51.7578125,-28.80859375,-33.69140625,-44.921875
131.76171875,-39.0625,-25.87890625,-35.15625,-40.0390625
131.765625,-41.50390625,-26.85546875,-56.640625,-20.5078125
131.76953125,-56.15234375,-33.203125,-49.31640625,-17.08984375
131.7734375,-62.98828125,-36.62109375,-24.4140625,0.9765625
131.77734375,-40.0390625,-34.1796875,-30.2734375,-3.41796875
131.78125,-25.87890625,-30.76171875,-47.8515625,-19.04296875
131.78515625,-44.921875,-31.25,-53.22265625,-21.97265625
131.7890625,-59.08203125,-38.57421875,-59.08203125,-43.45703125
131.79296875,-38.0859375,-37.59765625,-53.7109375,-52.734375
131.796875,-27.83203125,-25.87890625,-49.31640625,-41.015625
131.80078125,-49.31640625,-28.80859375,-54.6875,-38.57421875
131.8046875,-41.9921875,-33.69140625,-45.8984375,-25.87890625
131.80859375,-24.4140625,-23.4375,-47.36328125,-17.578125
131.8125,-26.3671875,-29.296875,-55.6640625,-30.76171875
131.81640625,-40.0390625,-34.1796875,-57.12890625,-34.1796875
131.8203125,-42.96875,-19.04296875,-48.33984375,-26.3671875
131.82421875,-48.33984375,-17.08984375,-42.48046875,-25.390625
131.828125,-61.03515625,-22.4609375,-42.48046875,-17.578125
131.83203125,-44.921875,-25.390625,-47.36328125,-17.578125
131.8359375,-29.78515625,-33.203125,-49.8046875,-15.625
131.83984375,-35.64453125,-32.2265625,-54.19921875,-16.6015625
131.84375,-33.203125,-29.78515625,-54.19921875,-26.85546875
131.84765625,-35.15625,-25.87890625,-34.66796875,-21.97265625
131.8515625,-47.8515625,-20.01953125,-31.25,-36.62109375
131.85546875,-46.875,-24.90234375,-40.0390625,-42.48046875
131.859375,-28.80859375,-30.2734375,-40.52734375,-21.97265625
131.86328125,-35.15625,-32.2265625,-38.0859375,-24.4140625
131.8671875,-43.9453125,-23.92578125,-31.73828125,-35.64453125
131.87109375,-48.33984375,-32.2265625,-36.1328125,-47.36328125
131.875,-36.1328125,-37.59765625,-47.8515625,-26.3671875
131.87890625,-20.5078125,-22.4609375,-43.45703125,-3.90625
131.8828125,-28.3203125,-17.578125,-34.1796875,-25.390625
131.88671875,-45.41015625,-25.390625,-33.69140625,-23.4375
131.890625,-46.38671875,-32.71484375,-35.15625,-34.66796875
131.89453125,-45.8984375,-28.80859375,-27.34375,-14.16015625
131.8984375,-55.6640625,-28.3203125,-21.97265625,1.46484375
131.90234375,-52.734375,-30.2734375,-32.2265625,-43.45703125
131.90625,-41.9921875,-28.80859375,-39.0625,-28.80859375
131.91015625,-38.57421875,-32.2265625,-31.73828125,-11.71875
131.9140625,-39.0625,-31.25,-29.296875,-26.85546875
131.91796875,-27.83203125,-28.3203125,-42.96875,-16.11328125
131.921875,-41.50390625,-30.2734375,-50.29296875,-10.7421875
131.92578125,-45.8984375,-31.73828125,-36.1328125,-25.390625
131.9296875,-16.11328125,-41.50390625,-28.3203125,-17.578125
131.93359375,-40.52734375,-51.26953125,-31.25,-13.18359375
131.9375,-65.91796875,-42.48046875,-32.71484375,-22.94921875
131.94140625,-46.38671875,-29.296875,-39.55078125,-15.625
131.9453125,-41.50390625,-31.25,-45.41015625,-14.16015625
131.94921875,-54.6875,-47.36328125,-36.62109375,-27.83203125
131.953125,-70.3125,-49.31640625,-41.015625,-36.62109375
131.95703125,-62.98828125,-34.1796875,-61.03515625,-24.4140625
131.9609375,-47.36328125,-39.0625,-42.48046875,-21.97265625
131.96484375,-56.640625,-38.0859375,-19.04296875,-62.01171875
131.96875,-53.7109375,-27.34375,-29.296875,-49.8046875
131.97265625,-53.7109375,-28.3203125,-33.69140625,-26.85546875
131.9765625,-55.17578125,-28.80859375,-36.1328125,-41.9921875
131.98046875,-37.109375,-31.25,-36.62109375,-22.94921875
131.984375,-35.64453125,-36.1328125,-36.62109375,-17.08984375
131.98828125,-32.71484375,-38.0859375,-41.50390625,-19.53125
131.9921875,-29.78515625,-40.0390625,-40.0390625,-20.5078125
131.99609375,-33.203125,-36.1328125,-30.2734375,4.39453125
132.0,-25.87890625,-27.83203125,-40.52734375,16.6015625
