Timestamp,TP9,AF7,AF8,TP10
122.0078125,-24.90234375,-12.6953125,-30.76171875,-27.83203125
122.01171875,-27.34375,-15.13671875,-28.80859375,-37.59765625
122.015625,-15.625,-15.625,-31.73828125,-31.73828125
122.01953125,-14.6484375,-16.6015625,-33.203125,-25.390625
122.0234375,-20.99609375,-15.13671875,-34.1796875,-27.34375
122.02734375,-25.390625,-15.13671875,-26.3671875,-25.87890625
122.03125,-26.85546875,-18.5546875,-24.4140625,-25.87890625
122.03515625,-23.92578125,-18.5546875,-26.85546875,-30.2734375
122.0390625,-23.4375,-13.671875,-23.92578125,-33.203125
122.04296875,-27.83203125,-16.11328125,-29.78515625,-36.1328125
122.046875,-31.73828125,-21.484375,-30.2734375,-20.5078125
122.05078125,-18.5546875,-19.04296875,-31.73828125,-11.23046875
122.0546875,-12.20703125,-17.578125,-32.2265625,-11.23046875
122.05859375,-19.04296875,-15.625,-31.25,-2.44140625
122.0625,-18.5546875,-16.11328125,-37.59765625,-12.6953125
122.06640625,-16.6015625,-20.5078125,-40.52734375,-15.13671875
122.0703125,-19.04296875,-23.4375,-38.0859375,-10.7421875
122.07421875,-19.53125,-26.3671875,-39.0625,-19.53125
122.078125,-19.04296875,-24.4140625,-40.0390625,-29.78515625
122.08203125,-16.6015625,-23.92578125,-38.0859375,-28.3203125
122.0859375,-8.30078125,-22.94921875,-37.109375,-17.08984375
122.08984375,-11.71875,-27.34375,-39.0625,-14.6484375
122.09375,-13.18359375,-28.80859375,-37.59765625,-10.25390625
122.09765625,-13.671875,-20.5078125,-34.66796875,-10.7421875
122.1015625,-8.7890625,-20.01953125,-32.2265625,-13.671875
122.10546875,-7.32421875,-21.97265625,-30.2734375,-10.25390625
122.109375,-23.4375,-19.04296875,-32.2265625,-5.859375
122.11328125,-23.4375,-18.06640625,-32.2265625,-11.23046875
122.1171875,-18.06640625,-20.99609375,-28.80859375,-15.625
122.12109375,-22.94921875,-27.83203125,-28.3203125,-19.04296875
122.125,-16.11328125,-25.390625,-29.78515625,-11.23046875
122.12890625,-19.53125,-18.5546875,-27.34375,-6.34765625
122.1328125,-29.78515625,-19.53125,-24.90234375,-7.32421875
122.13671875,-22.4609375,-20.99609375,-30.2734375,-3.41796875
122.140625,-15.13671875,-22.4609375,-27.83203125,0.9765625
122.14453125,-20.99609375,-21.97265625,-24.4140625,0.0
122.1484375,-16.6015625,-17.578125,-27.34375,0.0
122.15234375,-8.7890625,-19.04296875,-34.66796875,-2.9296875
122.15625,-10.25390625,-22.94921875,-33.203125,-8.7890625
122.16015625,-4.39453125,-22.4609375,-23.4375,-8.30078125
122.1640625,-6.34765625,-25.390625,-22.4609375,-6.34765625
122.16796875,-9.765625,-24.90234375,-26.85546875,-20.01953125
122.171875,-6.34765625,-20.99609375,-31.25,-21.484375
122.17578125,-12.20703125,-20.99609375,-29.78515625,-11.23046875
122.1796875,-19.04296875,-24.90234375,-31.25,-14.16015625
122.18359375,-19.53125,-31.25,-35.15625,-17.08984375
122.1875,-15.625,-27.83203125,-38.0859375,-10.25390625
122.19140625,-15.625,-24.90234375,-36.62109375,-7.8125
122.1953125,-17.08984375,-24.90234375,-28.3203125,-20.5078125
122.19921875,-9.765625,-21.484375,-27.83203125,-26.3671875
122.203125,-8.7890625,-17.578125,-34.1796875,-27.83203125
122.20703125,-16.6015625,-20.01953125,-34.1796875,-21.97265625
122.2109375,-9.765625,-23.4375,-31.25,-11.23046875
122.21484375,-5.37109375,-17.578125,-32.2265625,-5.859375
122.21875,-15.13671875,-18.06640625,-26.85546875,-10.7421875
122.22265625,-14.6484375,-18.06640625,-23.92578125,-20.01953125
122.2265625,-9.27734375,-16.11328125,-29.296875,-12.20703125
122.23046875,-14.16015625,-20.5078125,-29.78515625,-2.9296875
122.234375,-18.5546875,-21.484375,-30.76171875,-15.625
122.23828125,-13.671875,-21.484375,-37.59765625,-26.3671875
122.2421875,-8.30078125,-19.53125,-40.0390625,-28.3203125
122.24609375,-16.11328125,-20.5078125,-35.64453125,-15.625
122.25,-18.5546875,-23.92578125,-33.203125,-6.34765625
122.25390625,-17.578125,-26.85546875,-30.2734375,-17.08984375
122.2578125,-23.4375,-26.85546875,-31.73828125,-21.97265625
122.26171875,-17.08984375,-26.3671875,-36.62109375,-28.80859375
122.265625,-15.625,-28.3203125,-36.1328125,-33.203125
122.26953125,-17.578125,-26.3671875,-29.296875,-27.34375
122.2734375,-8.7890625,-20.99609375,-29.296875,-20.01953125
122.27734375,9.765625,-22.4609375,-36.62109375,6.34765625
122.28125,-9.765625,-25.390625,-34.66796875,3.90625
122.28515625,-40.52734375,-21.97265625,-26.85546875,-28.3203125
122.2890625,-38.57421875,-24.4140625,-31.73828125,-35.15625
122.29296875,-50.78125,-27.34375,-33.203125,-34.66796875
122.296875,-73.73046875,-31.73828125,-25.87890625,-39.0625
122.30078125,-81.54296875,-36.1328125,-28.3203125,-54.19921875
122.3046875,-83.0078125,-26.85546875,-29.78515625,-66.89453125
122.30859375,-96.19140625,-24.4140625,-34.66796875,-77.63671875
122.3125,-101.07421875,-31.73828125,-36.62109375,-88.37890625
122.31640625,-88.8671875,-29.78515625,-31.73828125,-89.35546875
122.3203125,-78.61328125,-25.390625,-31.25,-75.68359375
122.32421875,-70.80078125,-21.97265625,-30.76171875,-55.6640625
122.328125,-70.80078125,-24.4140625,-34.66796875,-43.45703125
122.33203125,-65.4296875,-29.296875,-41.50390625,-37.109375
122.3359375,-53.22265625,-26.85546875,-35.15625,-33.203125
122.33984375,-47.36328125,-20.01953125,-23.4375,-28.3203125
122.34375,-51.26953125,-21.97265625,-28.80859375,-28.80859375
122.34765625,-49.31640625,-30.2734375,-31.25,-29.296875
122.3515625,-40.52734375,-27.83203125,-29.296875,-29.296875
122.35546875,-50.29296875,-31.73828125,-34.66796875,-49.8046875
122.359375,-50.78125,-34.1796875,-34.66796875,-42.48046875
122.36328125,-42.48046875,-30.76171875,-27.34375,-32.71484375
122.3671875,-30.76171875,-30.76171875,-28.80859375,-41.50390625
122.37109375,-29.78515625,-34.66796875,-34.1796875,-32.2265625
122.375,-38.0859375,-30.76171875,-32.71484375,-34.1796875
122.37890625,-28.80859375,-27.34375,-35.15625,-39.0625
122.3828125,-21.97265625,-35.15625,-40.0390625,-41.50390625
122.38671875,-18.5546875,-31.73828125,-38.57421875,-41.50390625
122.390625,-9.765625,-29.78515625,-36.1328125,-37.59765625
122.39453125,-3.90625,-31.25,-34.66796875,-39.0625
122.3984375,-1.953125,-21.97265625,-38.57421875,-42.96875
122.40234375,-9.765625,-26.85546875,-42.96875,-36.1328125
122.40625,-25.390625,-37.109375,-39.55078125,-30.76171875
122.41015625,-42.48046875,-36.1328125,-32.71484375,-33.69140625
122.4140625,-46.875,-34.1796875,-30.2734375,-33.69140625
122.41796875,-35.64453125,-34.1796875,-28.3203125,-34.1796875
122.421875,-40.52734375,-36.62109375,-22.94921875,-25.390625
122.42578125,-47.36328125,-36.1328125,-24.90234375,-34.66796875
122.4296875,-57.12890625,-33.69140625,-28.80859375,-43.9453125
122.43359375,-61.03515625,-34.1796875,-28.80859375,-37.109375
122.4375,-51.26953125,-35.15625,-28.80859375,-34.66796875
122.44140625,-40.0390625,-30.76171875,-27.83203125,-29.296875
122.4453125,-20.99609375,-24.90234375,-31.25,-28.80859375
122.44921875,-22.94921875,-22.94921875,-28.3203125,-30.2734375
122.453125,-29.296875,-27.83203125,-22.4609375,-27.83203125
122.45703125,-22.4609375,-26.3671875,-26.85546875,-35.15625
122.4609375,-24.4140625,-27.83203125,-28.3203125,-47.36328125
122.46484375,-25.390625,-32.2265625,-28.3203125,-53.22265625
122.46875,-18.5546875,-27.34375,-28.3203125,-40.0390625
122.47265625,-20.01953125,-23.92578125,-28.3203125,-33.203125
122.4765625,-23.4375,-24.4140625,-33.203125,-43.45703125
122.48046875,-31.73828125,-24.90234375,-35.64453125,-39.55078125
122.484375,-21.97265625,-21.97265625,-28.3203125,-36.1328125
122.48828125,-9.27734375,-19.04296875,-27.34375,-41.015625
122.4921875,-19.53125,-22.94921875,-27.34375,-49.8046875
122.49609375,-21.484375,-24.90234375,-25.390625,-54.19921875
122.5,-24.90234375,-30.2734375,-26.3671875,-59.08203125
122.50390625,-22.94921875,-23.4375,-27.34375,-65.91796875
122.5078125,-16.11328125,-14.16015625,-25.87890625,-50.29296875
122.51171875,-21.484375,-23.92578125,-31.73828125,-38.57421875
122.515625,-24.90234375,-26.85546875,-36.1328125,-40.52734375
122.51953125,-13.671875,-24.90234375,-33.69140625,-29.296875
122.5234375,-8.7890625,-21.97265625,-31.73828125,-20.01953125
122.52734375,-12.6953125,-19.53125,-24.90234375,-17.08984375
122.53125,-9.765625,-22.4609375,-22.94921875,-10.25390625
122.53515625,-9.765625,-20.99609375,-20.99609375,-12.20703125
122.5390625,-11.23046875,-22.4609375,-20.01953125,-6.34765625
122.54296875,-5.859375,-20.5078125,-18.06640625,13.18359375
122.546875,-18.06640625,-20.01953125,-13.671875,10.25390625
122.55078125,-28.80859375,-25.87890625,-18.5546875,-7.32421875
122.5546875,-20.5078125,-24.90234375,-21.97265625,-8.7890625
122.55859375,-11.71875,-25.390625,-18.06640625,4.8828125
122.5625,-15.13671875,-27.83203125,-14.16015625,14.16015625
122.56640625,-19.04296875,-26.85546875,-21.484375,17.578125
122.5703125,-12.20703125,-28.3203125,-31.25,25.390625
122.57421875,-16.11328125,-29.78515625,-31.25,31.25
122.578125,-16.6015625,-23.4375,-28.80859375,26.85546875
122.58203125,-11.23046875,-25.87890625,-30.2734375,31.73828125
122.5859375,-14.6484375,-26.3671875,-30.76171875,38.57421875
122.58984375,-9.765625,-18.5546875,-25.390625,30.2734375
122.59375,-0.48828125,-16.11328125,-25.390625,28.80859375
122.59765625,-4.39453125,-18.06640625,-20.5078125,30.76171875
122.6015625,-1.953125,-20.01953125,-19.04296875,31.73828125
122.60546875,7.32421875,-22.4609375,-31.73828125,29.296875
122.609375,3.41796875,-23.92578125,-30.2734375,18.5546875
122.61328125,-1.953125,-23.4375,-21.97265625,6.8359375
122.6171875,-2.9296875,-18.06640625,-23.92578125,1.953125
122.62109375,-6.8359375,-19.53125,-30.76171875,-17.08984375
122.625,-11.71875,-21.97265625,-30.2734375,-23.4375
122.62890625,-14.16015625,-18.5546875,-27.83203125,-2.44140625
122.6328125,-9.765625,-22.94921875,-27.34375,7.8125
122.63671875,-19.53125,-27.34375,-27.34375,-0.9765625
122.640625,-23.92578125,-24.90234375,-29.296875,0.48828125
122.64453125,-10.7421875,-26.3671875,-27.83203125,5.859375
122.6484375,-10.7421875,-27.34375,-26.3671875,-4.39453125
122.65234375,-13.671875,-27.83203125,-30.2734375,-17.08984375
122.65625,-15.625,-26.85546875,-33.69140625,-28.3203125
122.66015625,-20.5078125,-25.87890625,-32.71484375,-36.62109375
122.6640625,-15.625,-25.390625,-30.76171875,-25.390625
122.66796875,-9.27734375,-24.4140625,-24.90234375,-17.08984375
122.671875,-15.625,-20.99609375,-25.390625,-23.4375
122.67578125,-28.3203125,-23.4375,-29.78515625,-18.06640625
122.6796875,-28.3203125,-22.4609375,-28.3203125,-12.20703125
122.68359375,-26.85546875,-21.97265625,-29.296875,-19.04296875
122.6875,-33.203125,-29.296875,-30.76171875,-27.34375
122.69140625,-27.34375,-29.296875,-29.296875,-40.52734375
122.6953125,-27.34375,-28.80859375,-23.92578125,-41.9921875
122.69921875,-28.3203125,-29.78515625,-25.390625,-34.1796875
122.703125,-18.5546875,-26.85546875,-24.90234375,-32.71484375
122.70703125,-16.11328125,-26.85546875,-23.4375,-44.921875
122.7109375,-19.53125,-30.76171875,-26.3671875,-58.10546875
122.71484375,-27.34375,-29.78515625,-25.87890625,-75.68359375
122.71875,-22.94921875,-28.80859375,-30.76171875,-80.078125
122.72265625,-9.765625,-26.3671875,-28.80859375,-61.5234375
122.7265625,-8.7890625,-23.4375,-25.390625,-63.96484375
122.73046875,-18.5546875,-30.2734375,-30.2734375,-57.12890625
122.734375,-17.578125,-34.1796875,-27.34375,-29.78515625
122.73828125,-13.671875,-29.296875,-26.3671875,-25.87890625
122.7421875,-10.7421875,-24.4140625,-30.76171875,-26.85546875
122.74609375,-0.9765625,-21.484375,-27.83203125,-12.20703125
122.75,-1.46484375,-28.80859375,-28.80859375,-9.27734375
122.75390625,-9.765625,-31.25,-33.203125,-21.484375
122.7578125,-6.34765625,-21.484375,-28.3203125,-9.765625
122.76171875,-0.48828125,-18.06640625,-23.4375,-9.27734375
122.765625,-2.9296875,-22.94921875,-21.97265625,-18.06640625
122.76953125,-3.90625,-22.4609375,-20.01953125,-0.48828125
122.7734375,2.44140625,-21.484375,-22.4609375,2.9296875
122.77734375,-3.41796875,-27.34375,-29.78515625,-0.9765625
122.78125,-7.8125,-25.87890625,-32.2265625,-0.48828125
122.78515625,-1.953125,-20.5078125,-28.80859375,-6.34765625
122.7890625,0.0,-20.5078125,-27.34375,-30.76171875
122.79296875,-3.90625,-25.390625,-27.83203125,-64.94140625
122.796875,-14.16015625,-30.2734375,-29.78515625,-65.4296875
122.80078125,-17.578125,-33.69140625,-36.62109375,-68.84765625
122.8046875,-16.6015625,-34.1796875,-33.69140625,-89.84375
122.80859375,-21.484375,-34.1796875,-30.76171875,-86.9140625
122.8125,-22.94921875,-32.71484375,-33.69140625,-86.42578125
122.81640625,-25.87890625,-33.69140625,-28.3203125,-89.35546875
122.8203125,-30.2734375,-31.73828125,-28.3203125,-83.49609375
122.82421875,-36.1328125,-28.80859375,-24.4140625,-71.2890625
122.828125,-37.109375,-29.78515625,-18.5546875,-73.73046875
122.83203125,-28.3203125,-26.85546875,-24.4140625,-73.2421875
122.8359375,-24.90234375,-28.80859375,-24.4140625,-55.6640625
122.83984375,-37.59765625,-30.76171875,-25.87890625,-40.52734375
122.84375,-28.80859375,-26.85546875,-25.390625,-26.85546875
122.84765625,-13.18359375,-22.94921875,-22.4609375,-18.06640625
122.8515625,-22.4609375,-27.34375,-29.296875,-25.87890625
122.85546875,-13.18359375,-24.4140625,-26.85546875,-27.34375
122.859375,-2.9296875,-22.94921875,-24.90234375,-29.78515625
122.86328125,0.48828125,-26.3671875,-25.87890625,-19.04296875
122.8671875,1.953125,-20.99609375,-27.83203125,-3.90625
122.87109375,-4.8828125,-22.4609375,-31.73828125,-18.06640625
122.875,-1.953125,-22.94921875,-30.76171875,-16.6015625
122.87890625,0.0,-13.671875,-26.3671875,-22.4609375
122.8828125,-0.48828125,-15.13671875,-29.296875,-42.48046875
122.88671875,-5.859375,-24.90234375,-32.71484375,-50.78125
122.890625,-15.625,-22.4609375,-30.76171875,-53.7109375
122.89453125,-16.6015625,-24.90234375,-28.3203125,-48.828125
122.8984375,-8.30078125,-28.80859375,-26.85546875,-52.24609375
122.90234375,-11.71875,-27.34375,-28.80859375,-43.9453125
122.90625,-18.5546875,-26.3671875,-31.25,-25.390625
122.91015625,-15.13671875,-24.90234375,-29.78515625,-21.97265625
122.9140625,-6.34765625,-23.4375,-26.85546875,-20.99609375
122.91796875,-7.32421875,-26.3671875,-31.25,-27.83203125
122.921875,-17.578125,-27.83203125,-33.203125,-30.2734375
122.92578125,-19.53125,-22.94921875,-27.34375,-18.5546875
122.9296875,-20.01953125,-22.94921875,-20.01953125,-10.7421875
122.93359375,-22.4609375,-24.90234375,-16.6015625,-16.11328125
122.9375,-18.5546875,-22.4609375,-22.4609375,-9.27734375
122.94140625,-15.625,-25.390625,-25.390625,7.32421875
122.9453125,-22.4609375,-25.87890625,-19.04296875,-1.953125
122.94921875,-28.80859375,-27.83203125,-17.08984375,-28.80859375
122.953125,-26.85546875,-33.203125,-23.92578125,-34.1796875
122.95703125,-34.1796875,-37.59765625,-24.4140625,-33.203125
122.9609375,-38.57421875,-37.59765625,-24.4140625,-32.2265625
122.96484375,-38.0859375,-35.15625,-31.73828125,-28.3203125
122.96875,-42.96875,-33.203125,-29.78515625,-28.3203125
122.97265625,-44.43359375,-33.203125,-22.4609375,-20.01953125
122.9765625,-41.9921875,-34.66796875,-21.97265625,-10.7421875
122.98046875,-42.96875,-34.1796875,-22.4609375,-1.953125
122.984375,-37.59765625,-31.25,-22.4609375,2.9296875
122.98828125,-34.66796875,-32.2265625,-29.78515625,-14.16015625
122.9921875,-50.29296875,-39.0625,-32.2265625,-20.01953125
122.99609375,-47.36328125,-39.0625,-26.85546875,-4.8828125
123.0,-34.1796875,-39.55078125,-28.3203125,17.08984375
123.00390625,-27.34375,-34.66796875,-23.4375,30.76171875
123.0078125,-26.85546875,-28.3203125,-19.04296875,18.06640625
123.01171875,-24.4140625,-26.3671875,-17.08984375,14.6484375
123.015625,-21.97265625,-25.390625,-15.625,31.73828125
123.01953125,-36.62109375,-33.203125,-19.04296875,26.3671875
123.0234375,-37.109375,-31.73828125,-18.5546875,26.85546875
123.02734375,-24.4140625,-22.4609375,-21.97265625,41.015625
123.03125,-21.484375,-22.94921875,-19.53125,55.6640625
123.03515625,-27.83203125,-27.83203125,-16.6015625,44.921875
123.0390625,-29.78515625,-20.5078125,-22.4609375,24.4140625
123.04296875,-22.94921875,-19.53125,-22.94921875,26.3671875
123.046875,-22.94921875,-25.87890625,-17.08984375,32.2265625
123.05078125,-23.4375,-25.87890625,-19.53125,41.9921875
123.0546875,-20.5078125,-23.4375,-23.92578125,32.71484375
123.05859375,-22.4609375,-19.04296875,-22.94921875,9.27734375
123.0625,-23.4375,-22.4609375,-24.4140625,10.25390625
123.06640625,-21.97265625,-23.92578125,-25.87890625,10.25390625
123.0703125,-17.08984375,-22.4609375,-27.83203125,6.34765625
123.07421875,-18.5546875,-24.4140625,-28.80859375,-9.27734375
123.078125,-17.08984375,-30.76171875,-29.78515625,-20.5078125
123.08203125,-20.5078125,-28.3203125,-32.2265625,-18.5546875
123.0859375,-18.06640625,-26.85546875,-33.69140625,-15.13671875
123.08984375,-4.39453125,-33.203125,-34.66796875,-15.13671875
123.09375,-5.859375,-31.25,-34.1796875,-18.5546875
123.09765625,-5.859375,-25.87890625,-27.34375,-18.06640625
123.1015625,-3.41796875,-24.90234375,-21.484375,-20.99609375
123.10546875,2.44140625,-22.4609375,-21.97265625,-15.13671875
123.109375,-2.44140625,-23.92578125,-23.92578125,-8.30078125
123.11328125,-17.08984375,-26.85546875,-25.390625,-10.25390625
123.1171875,-22.4609375,-24.90234375,-24.4140625,-5.859375
123.12109375,-24.4140625,-26.3671875,-21.484375,-6.34765625
123.125,-21.484375,-23.4375,-22.4609375,-3.41796875
123.12890625,-23.92578125,-28.3203125,-25.390625,-4.8828125
123.1328125,-23.4375,-32.71484375,-24.4140625,-12.20703125
123.13671875,-21.484375,-24.90234375,-19.53125,-4.39453125
123.140625,-32.2265625,-30.76171875,-21.97265625,-10.25390625
123.14453125,-35.15625,-38.57421875,-25.87890625,-22.4609375
123.1484375,-28.80859375,-26.3671875,-27.34375,-24.90234375
123.15234375,-38.0859375,-28.3203125,-26.85546875,-34.66796875
123.15625,-33.203125,-32.2265625,-22.4609375,-29.296875
123.16015625,-21.484375,-30.2734375,-18.5546875,-36.1328125
123.1640625,-24.4140625,-26.3671875,-21.484375,-49.8046875
123.16796875,-30.76171875,-25.87890625,-26.85546875,-41.015625
123.171875,-33.203125,-27.83203125,-26.3671875,-32.71484375
123.17578125,-24.4140625,-24.90234375,-27.34375,-30.76171875
123.1796875,-21.484375,-20.99609375,-27.34375,-34.66796875
123.18359375,-24.4140625,-26.3671875,-26.85546875,-16.11328125
123.1875,-15.625,-30.76171875,-31.25,-11.23046875
123.19140625,-24.4140625,-30.2734375,-30.76171875,-46.875
123.1953125,-22.4609375,-31.25,-27.34375,-52.24609375
123.19921875,-12.20703125,-24.90234375,-23.92578125,-43.9453125
123.203125,-9.27734375,-24.90234375,-23.92578125,-45.41015625
123.20703125,-8.7890625,-25.390625,-25.390625,-26.85546875
123.2109375,-20.01953125,-24.4140625,-28.3203125,-21.484375
123.21484375,-15.13671875,-30.76171875,-26.85546875,-30.2734375
123.21875,-8.7890625,-31.25,-26.85546875,-19.53125
123.22265625,-18.06640625,-30.2734375,-29.296875,-1.46484375
123.2265625,-27.34375,-29.296875,-29.296875,4.8828125
123.23046875,-25.87890625,-23.4375,-27.34375,-10.7421875
123.234375,-25.390625,-24.4140625,-24.4140625,-10.25390625
123.23828125,-25.87890625,-26.85546875,-23.4375,-9.765625
123.2421875,-23.4375,-24.4140625,-21.484375,-36.62109375
123.24609375,-17.08984375,-23.92578125,-23.4375,-42.48046875
123.25,-14.16015625,-30.76171875,-27.34375,-41.015625
123.25390625,-17.578125,-30.2734375,-29.296875,-48.33984375
123.2578125,-13.18359375,-26.3671875,-28.80859375,-54.6875
123.26171875,-13.18359375,-31.25,-26.85546875,-62.01171875
123.265625,-15.13671875,-27.34375,-21.97265625,-62.98828125
123.26953125,-8.30078125,-26.3671875,-27.83203125,-68.84765625
123.2734375,-6.34765625,-25.390625,-30.2734375,-69.3359375
123.27734375,-16.11328125,-20.5078125,-22.94921875,-82.51953125
123.28125,-17.08984375,-23.92578125,-19.53125,-82.51953125
123.28515625,-17.578125,-22.4609375,-18.5546875,-64.94140625
123.2890625,-21.484375,-19.53125,-15.13671875,-65.4296875
123.29296875,-16.11328125,-22.94921875,-16.11328125,-58.10546875
123.296875,-10.25390625,-24.90234375,-21.97265625,-39.55078125
123.30078125,-3.90625,-26.85546875,-21.97265625,-35.64453125
123.3046875,-1.46484375,-30.2734375,-20.99609375,-39.55078125
123.30859375,-3.41796875,-26.3671875,-20.5078125,-41.9921875
123.3125,0.48828125,-13.671875,-20.99609375,-45.41015625
123.31640625,6.34765625,-8.30078125,-22.4609375,-38.0859375
123.3203125,6.34765625,-11.71875,-20.99609375,-20.5078125
123.32421875,8.30078125,-12.20703125,-24.90234375,-20.99609375
123.328125,1.953125,-14.16015625,-27.34375,-33.203125
123.33203125,-4.8828125,-18.5546875,-24.90234375,-20.5078125
123.3359375,-6.8359375,-15.625,-27.34375,-22.4609375
123.33984375,-3.90625,-12.20703125,-31.25,-28.3203125
123.34375,-2.44140625,-11.71875,-28.3203125,-25.390625
123.34765625,-11.23046875,-16.11328125,-23.4375,-30.76171875
123.3515625,-14.16015625,-18.06640625,-22.94921875,-20.01953125
123.35546875,-16.6015625,-16.11328125,-28.80859375,-14.6484375
123.359375,-13.18359375,-18.5546875,-33.203125,-11.23046875
123.36328125,-13.18359375,-19.53125,-25.87890625,15.13671875
123.3671875,-23.92578125,-16.6015625,-20.01953125,33.203125
123.37109375,-18.06640625,-11.71875,-25.87890625,32.2265625
123.375,-17.08984375,-12.6953125,-26.85546875,8.7890625
123.37890625,-24.4140625,-22.94921875,-27.83203125,-17.578125
123.3828125,-18.06640625,-22.94921875,-36.62109375,-18.5546875
123.38671875,-15.625,-23.92578125,-39.0625,-16.11328125
123.390625,-15.625,-28.3203125,-38.57421875,-17.08984375
123.39453125,-21.484375,-24.90234375,-43.45703125,-22.4609375
123.3984375,-32.71484375,-27.34375,-46.38671875,-25.87890625
123.40234375,-25.87890625,-25.390625,-44.43359375,-34.66796875
123.40625,-14.6484375,-20.01953125,-39.55078125,-34.66796875
123.41015625,-22.94921875,-22.94921875,-34.1796875,-22.4609375
123.4140625,-27.34375,-26.85546875,-25.390625,-13.18359375
123.41796875,-27.83203125,-31.73828125,-34.1796875,-6.34765625
123.421875,-32.71484375,-32.2265625,-42.48046875,-5.859375
123.42578125,-30.76171875,-30.2734375,-41.9921875,-2.44140625
123.4296875,-22.94921875,-28.3203125,-39.55078125,1.46484375
123.43359375,-19.04296875,-22.94921875,-33.203125,-6.34765625
123.4375,-13.18359375,-22.4609375,-33.69140625,-3.41796875
123.44140625,-12.6953125,-20.01953125,-27.83203125,5.37109375
123.4453125,-23.4375,-19.53125,-21.484375,8.30078125
123.44921875,-25.87890625,-26.3671875,-21.484375,11.23046875
123.453125,-23.92578125,-26.3671875,-22.94921875,0.48828125
123.45703125,-25.390625,-22.4609375,-25.390625,-15.625
123.4609375,-27.83203125,-24.4140625,-25.87890625,-17.08984375
123.46484375,-25.87890625,-26.85546875,-28.80859375,-18.06640625
123.46875,-29.296875,-25.87890625,-31.25,-16.11328125
123.47265625,-28.3203125,-23.92578125,-23.4375,-3.41796875
123.4765625,-21.97265625,-18.5546875,-13.671875,20.5078125
123.48046875,-17.578125,-16.6015625,-11.23046875,18.5546875
123.484375,-21.97265625,-22.94921875,-22.94921875,-5.37109375
123.48828125,-24.4140625,-20.5078125,-17.08984375,3.41796875
123.4921875,-17.578125,-18.06640625,-5.859375,12.20703125
123.49609375,-15.13671875,-18.06640625,-11.23046875,9.765625
123.5,-14.16015625,-14.16015625,-12.20703125,8.7890625
123.50390625,-11.23046875,-15.625,-15.13671875,-0.48828125
123.5078125,-10.25390625,-16.11328125,-19.53125,-18.06640625
123.51171875,-7.8125,-14.6484375,-19.04296875,-28.80859375
123.515625,-11.23046875,-14.6484375,-21.484375,-36.1328125
123.51953125,-14.6484375,-14.6484375,-24.4140625,-23.4375
123.5234375,-13.18359375,-17.578125,-25.390625,-6.34765625
123.52734375,-16.11328125,-21.484375,-25.87890625,-3.90625
123.53125,-17.08984375,-17.578125,-28.3203125,1.953125
123.53515625,-14.6484375,-15.625,-33.203125,-7.8125
123.5390625,-16.11328125,-20.99609375,-31.73828125,-13.18359375
123.54296875,-15.625,-22.4609375,-23.92578125,-9.27734375
123.546875,-17.578125,-20.99609375,-25.390625,-12.20703125
123.55078125,-20.5078125,-26.85546875,-26.3671875,-7.32421875
123.5546875,-27.34375,-24.90234375,-23.4375,-4.39453125
123.55859375,-27.34375,-20.5078125,-23.4375,-2.44140625
123.5625,-34.1796875,-23.4375,-29.296875,-2.44140625
123.56640625,-34.1796875,-20.01953125,-28.80859375,-14.16015625
123.5703125,-23.4375,-17.578125,-27.34375,-29.78515625
123.57421875,-31.73828125,-15.13671875,-29.296875,-46.38671875
123.578125,-38.57421875,-16.11328125,-28.80859375,-37.109375
123.58203125,-34.66796875,-17.578125,-28.80859375,-12.20703125
123.5859375,-27.83203125,-15.625,-31.25,-12.20703125
123.58984375,-30.76171875,-20.5078125,-34.1796875,-12.6953125
123.59375,-36.1328125,-26.3671875,-28.3203125,-4.8828125
123.59765625,-31.25,-25.390625,-27.83203125,-4.39453125
123.6015625,-41.9921875,-22.94921875,-33.203125,-10.25390625
123.60546875,-38.0859375,-22.94921875,-30.2734375,-12.6953125
123.609375,-27.83203125,-26.85546875,-35.15625,-15.13671875
123.61328125,-27.34375,-27.34375,-35.15625,-18.5546875
123.6171875,-28.3203125,-27.34375,-30.2734375,-25.390625
123.62109375,-32.71484375,-26.85546875,-34.1796875,-37.109375
123.625,-35.15625,-26.3671875,-35.15625,-36.62109375
123.62890625,-31.73828125,-24.4140625,-29.78515625,-31.73828125
123.6328125,-32.71484375,-18.06640625,-33.203125,-32.2265625
123.63671875,-31.73828125,-20.99609375,-35.64453125,-28.3203125
123.640625,-31.25,-23.4375,-33.69140625,-31.73828125
123.64453125,-36.62109375,-23.4375,-30.76171875,-33.69140625
123.6484375,-39.0625,-23.92578125,-27.83203125,-23.92578125
123.65234375,-32.71484375,-19.53125,-28.3203125,-20.99609375
123.65625,-27.34375,-14.6484375,-25.87890625,-18.5546875
123.66015625,-35.15625,-14.6484375,-22.94921875,-20.99609375
123.6640625,-38.57421875,-16.6015625,-26.3671875,-29.78515625
123.66796875,-31.25,-14.6484375,-23.92578125,-24.4140625
123.671875,-28.80859375,-12.6953125,-16.11328125,-5.37109375
123.67578125,-25.87890625,-14.6484375,-15.13671875,-0.48828125
123.6796875,-22.94921875,-17.578125,-15.625,3.90625
123.68359375,-24.4140625,-20.5078125,-17.578125,6.8359375
123.6875,-25.390625,-24.90234375,-24.4140625,-0.48828125
123.69140625,-25.390625,-25.87890625,-26.85546875,-1.953125
123.6953125,-24.4140625,-20.01953125,-27.34375,3.90625
123.69921875,-20.5078125,-16.6015625,-22.94921875,5.37109375
123.703125,-21.484375,-21.484375,-22.4609375,-1.46484375
123.70703125,-25.87890625,-21.484375,-26.3671875,4.39453125
123.7109375,-28.80859375,-11.71875,-19.53125,10.7421875
123.71484375,-26.3671875,-18.06640625,-20.5078125,2.9296875
123.71875,-24.90234375,-27.83203125,-22.4609375,-3.41796875
123.72265625,-21.484375,-24.90234375,-27.83203125,-3.90625
123.7265625,-16.6015625,-26.85546875,-33.69140625,-21.484375
123.73046875,-9.765625,-24.90234375,-29.296875,-31.25
123.734375,-13.18359375,-20.99609375,-28.3203125,-21.484375
123.73828125,-18.5546875,-21.484375,-26.3671875,-21.97265625
123.7421875,-20.01953125,-21.484375,-23.4375,-24.4140625
123.74609375,-21.484375,-25.87890625,-28.3203125,-26.85546875
123.75,-23.4375,-25.87890625,-28.80859375,-24.4140625
123.75390625,-23.92578125,-17.578125,-27.83203125,-23.92578125
123.7578125,-35.64453125,-22.4609375,-35.15625,-23.4375
123.76171875,-38.57421875,-24.90234375,-33.69140625,-14.6484375
123.765625,-27.83203125,-22.4609375,-25.87890625,-12.20703125
123.76953125,-28.3203125,-20.5078125,-19.04296875,-14.6484375
123.7734375,-20.99609375,-15.625,-18.06640625,-11.71875
123.77734375,-14.6484375,-18.5546875,-22.4609375,-29.78515625
123.78125,-16.6015625,-20.01953125,-20.5078125,-53.7109375
123.78515625,-14.6484375,-16.6015625,-24.90234375,-57.6171875
123.7890625,-5.37109375,-14.16015625,-27.83203125,-34.66796875
123.79296875,4.8828125,-11.71875,-26.3671875,-8.7890625
123.796875,0.9765625,-14.16015625,-24.90234375,-6.34765625
123.80078125,-2.9296875,-17.578125,-22.94921875,-5.37109375
123.8046875,-17.08984375,-19.04296875,-23.92578125,-7.32421875
123.80859375,-25.390625,-19.53125,-21.97265625,-4.39453125
123.8125,-14.16015625,-15.13671875,-23.92578125,-3.41796875
123.81640625,-22.4609375,-16.6015625,-23.4375,-11.23046875
123.8203125,-24.90234375,-19.04296875,-22.4609375,-10.25390625
123.82421875,-14.6484375,-13.671875,-23.92578125,-5.859375
123.828125,-12.6953125,-11.23046875,-23.4375,-13.671875
123.83203125,-10.7421875,-17.578125,-23.4375,-9.27734375
123.8359375,-12.6953125,-20.5078125,-22.4609375,-12.20703125
123.83984375,-14.16015625,-18.06640625,-26.3671875,-14.6484375
123.84375,-3.90625,-13.671875,-30.2734375,-7.8125
123.84765625,-4.39453125,-20.5078125,-28.3203125,-11.23046875
123.8515625,-4.39453125,-21.97265625,-22.4609375,-10.25390625
123.85546875,-4.39453125,-18.06640625,-24.90234375,-10.25390625
123.859375,-8.30078125,-17.578125,-26.3671875,-4.39453125
123.86328125,-11.71875,-14.6484375,-24.4140625,-11.23046875
123.8671875,-23.4375,-13.18359375,-29.78515625,-25.390625
123.87109375,-23.4375,-17.08984375,-33.203125,-27.34375
123.875,-20.5078125,-15.625,-26.85546875,-30.2734375
123.87890625,-17.08984375,-11.71875,-27.34375,-22.94921875
123.8828125,-16.6015625,-9.27734375,-28.80859375,-30.2734375
123.88671875,-23.4375,-9.765625,-28.3203125,-39.55078125
123.890625,-20.99609375,-13.18359375,-25.87890625,-31.73828125
123.89453125,-26.3671875,-13.671875,-21.97265625,-23.4375
123.8984375,-33.69140625,-18.5546875,-25.390625,-23.92578125
123.90234375,-30.76171875,-22.94921875,-29.296875,-24.4140625
123.90625,-38.0859375,-24.4140625,-26.3671875,-31.73828125
123.91015625,-42.96875,-27.34375,-24.4140625,-25.390625
123.9140625,-33.69140625,-26.85546875,-27.34375,-9.765625
123.91796875,-32.71484375,-25.87890625,-30.2734375,-11.23046875
123.921875,-38.0859375,-23.92578125,-33.69140625,-25.390625
123.92578125,-39.55078125,-26.3671875,-36.62109375,-31.25
123.9296875,-40.0390625,-25.87890625,-32.2265625,-23.92578125
123.93359375,-38.57421875,-25.390625,-29.78515625,-36.1328125
123.9375,-33.203125,-20.01953125,-38.57421875,-51.26953125
123.94140625,-26.3671875,-17.08984375,-40.0390625,-43.9453125
123.9453125,-26.85546875,-21.97265625,-35.15625,-34.1796875
123.94921875,-24.4140625,-24.4140625,-37.109375,-26.85546875
123.953125,-17.08984375,-20.5078125,-36.1328125,-22.94921875
123.95703125,-8.30078125,-14.6484375,-35.15625,-13.18359375
123.9609375,-0.48828125,-14.16015625,-35.64453125,2.9296875
123.96484375,10.7421875,-9.765625,-32.2265625,20.99609375
123.96875,12.6953125,-9.765625,-29.296875,29.78515625
123.97265625,3.41796875,-12.6953125,-31.73828125,20.01953125
123.9765625,-1.46484375,-10.25390625,-33.69140625,17.08984375
123.98046875,-5.859375,-12.6953125,-33.69140625,17.578125
123.984375,-15.13671875,-16.11328125,-37.109375,8.7890625
123.98828125,-27.34375,-20.01953125,-37.109375,-1.953125
123.9921875,-21.97265625,-16.6015625,-38.0859375,-10.25390625
123.99609375,-17.08984375,-14.16015625,-37.109375,-7.32421875
124.0,-25.87890625,-16.11328125,-27.34375,-7.32421875
124.00390625,-30.76171875,-20.5078125,-27.83203125,-14.6484375
124.0078125,-27.83203125,-23.4375,-26.3671875,-0.48828125
124.01171875,-30.76171875,-24.4140625,-20.99609375,6.34765625
124.015625,-35.15625,-27.34375,-19.53125,8.30078125
124.01953125,-35.64453125,-19.53125,-18.06640625,-1.953125
124.0234375,-28.3203125,-4.39453125,-26.85546875,-11.23046875
124.02734375,-6.34765625,-4.8828125,-27.83203125,0.48828125
124.03125,-22.94921875,-17.08984375,-13.671875,-16.11328125
124.03515625,-62.01171875,-17.08984375,-5.859375,-54.19921875
124.0390625,-59.5703125,-9.765625,-5.37109375,-90.8203125
124.04296875,-52.734375,-18.06640625,-8.30078125,-102.5390625
124.046875,-56.15234375,-23.4375,-3.41796875,-107.421875
124.05078125,-63.4765625,-18.06640625,11.23046875,-117.67578125
124.0546875,-66.40625,-27.34375,13.18359375,-107.91015625
124.05859375,-63.96484375,-31.25,12.20703125,-95.21484375
124.0625,-69.3359375,-24.4140625,21.97265625,-92.7734375
124.06640625,-80.078125,-30.76171875,26.85546875,-90.33203125
124.0703125,-78.125,-35.64453125,29.78515625,-80.078125
124.07421875,-69.3359375,-35.15625,29.296875,-73.73046875
124.078125,-68.84765625,-41.50390625,31.25,-66.40625
124.08203125,-70.3125,-45.8984375,38.0859375,-65.91796875
124.0859375,-81.0546875,-51.7578125,36.62109375,-67.87109375
124.08984375,-77.1484375,-54.6875,30.76171875,-56.15234375
124.09375,-62.01171875,-54.6875,34.1796875,-70.80078125
124.09765625,-62.5,-53.7109375,44.921875,-82.03125
124.1015625,-57.6171875,-54.6875,41.9921875,-54.6875
124.10546875,-52.734375,-62.5,38.0859375,-29.78515625
124.109375,-46.875,-64.453125,41.9921875,-9.27734375
124.11328125,-41.9921875,-64.453125,40.52734375,15.625
124.1171875,-37.109375,-62.98828125,44.921875,35.15625
124.12109375,-32.71484375,-66.89453125,44.921875,38.0859375
124.125,-22.94921875,-71.77734375,41.50390625,40.0390625
124.12890625,-13.671875,-66.40625,37.59765625,59.5703125
124.1328125,-11.23046875,-60.05859375,32.71484375,76.171875
124.13671875,-4.39453125,-57.12890625,37.59765625,80.56640625
124.140625,9.765625,-50.78125,41.9921875,87.890625
124.14453125,22.4609375,-46.875,38.0859375,95.21484375
124.1484375,27.83203125,-51.7578125,30.76171875,89.35546875
124.15234375,44.921875,-60.546875,23.4375,100.5859375
124.15625,43.9453125,-61.5234375,23.4375,114.2578125
124.16015625,43.9453125,-57.6171875,21.484375,108.3984375
124.1640625,59.08203125,-55.17578125,15.13671875,114.2578125
124.16796875,48.828125,-57.12890625,7.32421875,121.09375
124.171875,49.31640625,-52.734375,5.37109375,142.578125
124.17578125,62.98828125,-47.8515625,6.34765625,159.66796875
124.1796875,53.7109375,-45.8984375,6.8359375,146.484375
124.18359375,40.52734375,-42.48046875,7.8125,130.859375
124.1875,42.96875,-45.8984375,7.32421875,124.0234375
124.19140625,43.9453125,-44.43359375,6.34765625,115.72265625
124.1953125,52.734375,-50.29296875,1.953125,118.65234375
124.19921875,62.01171875,-52.734375,-3.90625,131.8359375
124.203125,62.98828125,-41.015625,-14.16015625,135.7421875
124.20703125,53.22265625,-29.296875,-16.11328125,133.7890625
124.2109375,39.55078125,-25.87890625,-9.765625,126.46484375
124.21484375,36.1328125,-30.2734375,-14.16015625,117.67578125
124.21875,34.1796875,-35.64453125,-25.390625,104.98046875
124.22265625,40.52734375,-32.2265625,-29.296875,85.9375
124.2265625,41.015625,-30.76171875,-20.5078125,64.94140625
124.23046875,31.73828125,-38.57421875,-22.94921875,61.03515625
124.234375,30.2734375,-34.1796875,-32.71484375,61.03515625
124.23828125,27.83203125,-27.83203125,-28.3203125,49.31640625
124.2421875,18.06640625,-27.34375,-34.1796875,21.97265625
124.24609375,18.5546875,-26.3671875,-33.203125,7.32421875
124.25,11.23046875,-23.4375,-30.76171875,1.46484375
124.25390625,7.8125,-21.97265625,-36.1328125,-32.2265625
124.2578125,5.859375,-20.01953125,-41.50390625,-50.78125
124.26171875,-1.46484375,-20.99609375,-41.015625,-45.8984375
124.265625,6.34765625,-21.97265625,-33.69140625,-45.8984375
124.26953125,9.27734375,-20.5078125,-35.64453125,-54.19921875
124.2734375,-1.46484375,-20.01953125,-36.62109375,-63.96484375
124.27734375,-6.8359375,-20.5078125,-32.2265625,-62.98828125
124.28125,-4.8828125,-20.01953125,-28.80859375,-46.38671875
124.28515625,-1.953125,-15.13671875,-30.76171875,-28.80859375
124.2890625,-3.90625,-16.6015625,-31.25,-30.2734375
124.29296875,-13.18359375,-31.73828125,-41.015625,-44.43359375
124.296875,-16.11328125,-31.73828125,-44.43359375,-37.59765625
124.30078125,-8.7890625,-18.06640625,-34.1796875,-39.0625
124.3046875,-2.9296875,-16.6015625,-33.203125,-47.8515625
124.30859375,-2.9296875,-18.06640625,-36.62109375,-41.9921875
124.3125,-10.7421875,-15.13671875,-31.25,-34.66796875
124.31640625,-13.18359375,-14.6484375,-30.76171875,-28.3203125
124.3203125,-5.859375,-13.18359375,-40.0390625,-24.4140625
124.32421875,-15.13671875,-15.13671875,-41.9921875,-24.4140625
124.328125,-15.625,-10.25390625,-41.50390625,-23.92578125
124.33203125,-3.41796875,-6.34765625,-48.828125,-24.4140625
124.3359375,-28.80859375,-13.671875,-41.015625,-42.96875
124.33984375,-38.0859375,-17.578125,-35.64453125,-47.8515625
124.34375,-16.6015625,-23.92578125,-38.0859375,-25.390625
124.34765625,-9.765625,-20.5078125,-34.66796875,-7.32421875
124.3515625,-13.671875,-12.20703125,-42.48046875,-11.23046875
124.35546875,-15.625,-12.20703125,-44.43359375,2.44140625
124.359375,-18.06640625,-16.11328125,-37.109375,15.13671875
124.36328125,-20.01953125,-16.11328125,-35.15625,3.90625
124.3671875,-20.01953125,-8.30078125,-28.80859375,-11.23046875
124.37109375,-25.87890625,-7.32421875,-29.296875,-44.43359375
124.375,-22.94921875,-16.6015625,-36.62109375,-62.98828125
124.37890625,-19.53125,-18.5546875,-31.73828125,-49.8046875
124.3828125,-22.94921875,-15.13671875,-32.2265625,-44.921875
124.38671875,-23.92578125,-11.71875,-32.71484375,-46.38671875
124.390625,-15.13671875,-8.30078125,-26.85546875,-49.8046875
124.39453125,-14.6484375,-11.71875,-30.76171875,-58.10546875
124.3984375,-16.11328125,-8.7890625,-36.62109375,-57.12890625
124.40234375,-9.765625,-10.7421875,-35.15625,-55.6640625
124.40625,-4.8828125,-9.765625,-34.1796875,-56.15234375
124.41015625,-9.765625,-5.37109375,-36.1328125,-59.5703125
124.4140625,-23.92578125,-11.23046875,-41.50390625,-61.03515625
124.41796875,-29.296875,-14.16015625,-39.55078125,-66.89453125
124.421875,-25.390625,-12.6953125,-35.15625,-59.08203125
124.42578125,-31.25,-14.16015625,-31.25,-44.43359375
124.4296875,-22.4609375,-12.6953125,-28.3203125,-42.48046875
124.43359375,-19.04296875,-13.18359375,-31.73828125,-41.50390625
124.4375,-26.3671875,-12.20703125,-31.25,-36.62109375
124.44140625,-25.87890625,-6.34765625,-32.2265625,-33.203125
124.4453125,-18.5546875,-5.859375,-36.1328125,-26.85546875
124.44921875,-12.6953125,-8.7890625,-33.203125,-18.5546875
124.453125,-25.390625,-11.71875,-28.80859375,-11.71875
124.45703125,-23.92578125,-12.6953125,-33.203125,-10.25390625
124.4609375,-32.71484375,-10.7421875,-32.2265625,0.9765625
124.46484375,-38.0859375,-7.32421875,-27.34375,10.25390625
124.46875,-28.3203125,-9.27734375,-29.296875,-1.46484375
124.47265625,-28.80859375,-8.30078125,-28.80859375,-17.578125
124.4765625,-32.2265625,-5.859375,-29.296875,-18.5546875
124.48046875,-30.2734375,-11.71875,-34.1796875,-23.92578125
124.484375,-25.390625,-6.8359375,-29.296875,-32.71484375
124.48828125,-23.92578125,-7.32421875,-26.85546875,-30.2734375
124.4921875,-17.08984375,-11.23046875,-31.73828125,-32.2265625
124.49609375,-11.71875,-4.39453125,-30.76171875,-20.01953125
124.5,-23.92578125,-6.34765625,-34.66796875,-13.18359375
124.50390625,-37.59765625,-12.6953125,-35.15625,-16.6015625
124.5078125,-44.43359375,-13.671875,-33.203125,-30.2734375
124.51171875,-50.29296875,-13.671875,-39.0625,-27.83203125
124.515625,-48.828125,-16.11328125,-41.015625,-5.859375
124.51953125,-57.6171875,-20.99609375,-36.62109375,-10.7421875
124.5234375,-62.98828125,-17.08984375,-30.2734375,-11.23046875
124.52734375,-48.33984375,-13.671875,-30.76171875,0.0
124.53125,-37.109375,-18.06640625,-31.25,7.8125
124.53515625,-36.1328125,-15.625,-31.73828125,-3.41796875
124.5390625,-38.0859375,-10.25390625,-32.71484375,-3.41796875
124.54296875,-41.50390625,-17.08984375,-29.296875,10.25390625
124.546875,-49.8046875,-19.04296875,-32.2265625,16.6015625
124.55078125,-41.9921875,-9.765625,-33.203125,27.34375
124.5546875,-32.2265625,-7.8125,-27.34375,28.3203125
124.55859375,-28.3203125,-9.765625,-31.25,22.4609375
124.5625,-21.97265625,-10.7421875,-34.66796875,17.08984375
124.56640625,-28.80859375,-9.765625,-29.78515625,12.20703125
124.5703125,-23.4375,-7.8125,-29.296875,14.16015625
124.57421875,-10.7421875,-9.27734375,-24.90234375,17.08984375
124.578125,-12.6953125,-12.20703125,-24.4140625,17.08984375
124.58203125,-7.32421875,-13.671875,-29.296875,10.7421875
124.5859375,1.953125,-12.6953125,-31.25,-7.8125
124.58984375,62.5,-17.08984375,-31.25,-3.41796875
124.59375,156.73828125,-15.13671875,-24.4140625,10.25390625
124.59765625,189.94140625,-12.6953125,-24.4140625,11.23046875
124.6015625,208.984375,-15.13671875,-29.296875,21.484375
124.60546875,218.75,-13.18359375,-30.2734375,31.25
124.609375,208.49609375,-9.765625,-28.80859375,28.80859375
124.61328125,199.21875,-4.8828125,-29.78515625,36.62109375
124.6171875,183.59375,-5.859375,-29.78515625,31.73828125
124.62109375,169.921875,-6.34765625,-26.3671875,25.87890625
124.625,154.296875,-6.8359375,-25.87890625,17.08984375
124.62890625,144.53125,-13.18359375,-27.34375,5.859375
124.6328125,136.71875,-13.18359375,-26.3671875,1.953125
124.63671875,126.46484375,-9.765625,-25.87890625,4.39453125
124.640625,123.046875,-6.34765625,-25.390625,1.46484375
124.64453125,111.81640625,-8.7890625,-25.390625,4.8828125
124.6484375,109.86328125,-13.18359375,-25.87890625,4.8828125
124.65234375,114.2578125,-9.27734375,-28.3203125,5.859375
124.65625,108.88671875,-2.9296875,-28.80859375,7.8125
124.66015625,100.09765625,-0.48828125,-26.3671875,-8.30078125
124.6640625,90.8203125,-2.9296875,-22.94921875,-13.671875
124.66796875,82.51953125,-9.27734375,-20.5078125,-7.8125
124.671875,76.66015625,-8.7890625,-18.5546875,-3.41796875
124.67578125,84.47265625,-6.34765625,-21.484375,-3.90625
124.6796875,76.66015625,-8.30078125,-21.97265625,7.8125
124.68359375,59.08203125,-10.25390625,-23.4375,9.765625
124.6875,49.31640625,-7.32421875,-27.83203125,5.859375
124.69140625,43.45703125,-2.9296875,-27.83203125,-4.8828125
124.6953125,41.9921875,-8.30078125,-24.90234375,7.8125
124.69921875,38.57421875,-9.765625,-24.4140625,37.109375
124.703125,27.34375,-9.27734375,-25.87890625,23.92578125
124.70703125,35.64453125,-5.37109375,-26.3671875,10.25390625
124.7109375,38.0859375,-2.9296875,-20.5078125,15.13671875
124.71484375,13.671875,-8.30078125,-15.13671875,30.2734375
124.71875,17.578125,-3.90625,-15.13671875,37.59765625
124.72265625,21.484375,-0.9765625,-17.08984375,12.20703125
124.7265625,15.13671875,-3.90625,-18.06640625,-1.953125
124.73046875,11.23046875,-4.39453125,-16.11328125,10.7421875
124.734375,7.32421875,-8.30078125,-21.484375,11.71875
124.73828125,8.7890625,-7.8125,-25.87890625,8.30078125
124.7421875,11.71875,-4.8828125,-24.90234375,5.859375
124.74609375,8.30078125,-5.859375,-22.4609375,2.44140625
124.75,7.8125,-11.71875,-22.94921875,6.34765625
124.75390625,8.7890625,-5.859375,-21.484375,5.859375
124.7578125,6.34765625,-0.9765625,-16.6015625,-2.44140625
124.76171875,2.9296875,-13.18359375,-16.11328125,-6.8359375
124.765625,-6.8359375,-12.6953125,-25.390625,-0.48828125
124.76953125,-7.32421875,-9.27734375,-32.2265625,-2.44140625
124.7734375,-4.39453125,-9.765625,-28.3203125,2.9296875
124.77734375,-14.16015625,-13.18359375,-23.92578125,9.765625
124.78125,-21.484375,-15.625,-21.97265625,0.0
124.78515625,-16.11328125,-11.71875,-27.83203125,-9.765625
124.7890625,-10.7421875,-7.8125,-30.76171875,-5.859375
124.79296875,-11.71875,-13.18359375,-35.64453125,-9.27734375
124.796875,-5.37109375,-14.6484375,-31.73828125,-7.8125
124.80078125,-8.30078125,-8.7890625,-18.5546875,9.27734375
124.8046875,-21.484375,-8.30078125,-22.4609375,2.9296875
124.80859375,-14.16015625,-12.6953125,-27.34375,-2.44140625
124.8125,-14.16015625,-17.08984375,-23.4375,2.9296875
124.81640625,-22.4609375,-14.6484375,-25.390625,5.37109375
124.8203125,-21.484375,-14.6484375,-24.90234375,21.484375
124.82421875,-17.08984375,-14.16015625,-22.4609375,38.0859375
124.828125,-14.6484375,-15.625,-24.90234375,35.15625
124.83203125,-11.23046875,-20.01953125,-20.99609375,35.15625
124.8359375,-21.484375,-16.11328125,-17.08984375,31.25
124.83984375,-31.25,-10.7421875,-20.01953125,26.85546875
124.84375,-27.34375,-14.6484375,-20.5078125,24.90234375
124.84765625,-24.90234375,-16.6015625,-20.01953125,23.4375
124.8515625,-37.59765625,-19.53125,-23.4375,20.01953125
124.85546875,-41.9921875,-19.04296875,-22.94921875,0.0
124.859375,-33.69140625,-17.08984375,-19.53125,0.9765625
124.86328125,-31.73828125,-18.5546875,-19.04296875,11.71875
124.8671875,-34.66796875,-18.5546875,-18.06640625,2.9296875
124.87109375,-29.78515625,-19.04296875,-13.18359375,-3.41796875
124.875,-33.203125,-19.04296875,-11.71875,7.8125
124.87890625,-27.34375,-16.6015625,-15.13671875,8.7890625
124.8828125,-20.99609375,-16.11328125,-15.625,-2.9296875
124.88671875,-25.390625,-19.53125,-17.578125,-12.20703125
124.890625,-26.3671875,-19.53125,-20.01953125,-20.01953125
124.89453125,-27.34375,-15.13671875,-15.13671875,-18.06640625
124.8984375,-21.97265625,-21.97265625,-14.16015625,-14.16015625
124.90234375,-22.94921875,-26.3671875,-20.01953125,-16.11328125
124.90625,-19.04296875,-24.90234375,-20.5078125,-12.20703125
124.91015625,-20.01953125,-30.2734375,-14.16015625,-17.578125
124.9140625,-25.87890625,-27.83203125,-17.08984375,-40.0390625
124.91796875,-20.5078125,-24.4140625,-20.01953125,-54.19921875
124.921875,-13.671875,-22.4609375,-18.5546875,-42.48046875
124.92578125,-27.34375,-21.97265625,-19.04296875,-41.015625
124.9296875,-28.3203125,-18.5546875,-10.25390625,-49.8046875
124.93359375,-28.3203125,-18.5546875,-9.27734375,-52.734375
124.9375,-38.0859375,-22.4609375,-18.06640625,-61.03515625
124.94140625,-30.76171875,-20.5078125,-16.6015625,-69.3359375
124.9453125,-32.71484375,-22.4609375,-14.16015625,-65.4296875
124.94921875,-43.45703125,-26.85546875,-18.06640625,-61.5234375
124.953125,-41.50390625,-27.83203125,-18.06640625,-68.84765625
124.95703125,-41.9921875,-26.85546875,-16.11328125,-69.3359375
124.9609375,-42.96875,-20.01953125,-13.671875,-61.5234375
124.96484375,-46.38671875,-22.4609375,-15.13671875,-61.5234375
124.96875,-60.546875,-27.34375,-16.6015625,-82.03125
124.97265625,-65.4296875,-22.94921875,-14.16015625,-95.21484375
124.9765625,-65.91796875,-23.4375,-15.13671875,-83.984375
124.98046875,-76.66015625,-27.83203125,-15.13671875,-77.63671875
124.984375,-81.54296875,-27.83203125,-18.06640625,-78.125
124.98828125,-84.9609375,-24.90234375,-21.484375,-83.49609375
124.9921875,-86.9140625,-25.87890625,-17.578125,-76.66015625
124.99609375,-93.75,-31.25,-17.578125,-61.5234375
125.0,-98.6328125,-30.2734375,-16.6015625,-65.4296875
125.00390625,-87.40234375,-24.90234375,-12.20703125,-59.5703125
125.0078125,-73.73046875,-23.92578125,-10.7421875,-59.5703125
125.01171875,-75.68359375,-24.4140625,-15.625,-71.2890625
125.015625,-87.40234375,-29.78515625,-14.6484375,-69.3359375
125.01953125,-74.21875,-28.80859375,-14.16015625,-69.3359375
125.0234375,-59.5703125,-24.90234375,-17.578125,-80.078125
125.02734375,-45.41015625,-28.3203125,-14.6484375,-75.68359375
125.03125,-14.16015625,-28.80859375,-17.08984375,-68.84765625
125.03515625,9.765625,-26.3671875,-20.99609375,-78.61328125
125.0390625,27.34375,-28.3203125,-21.97265625,-74.70703125
125.04296875,34.66796875,-32.71484375,-25.87890625,-61.03515625
125.046875,26.85546875,-30.2734375,-19.53125,-49.31640625
125.05078125,20.99609375,-26.85546875,-20.01953125,-43.45703125
125.0546875,16.11328125,-26.85546875,-20.5078125,-27.34375
125.05859375,12.20703125,-27.83203125,-11.23046875,-24.4140625
125.0625,12.6953125,-28.80859375,-10.25390625,-41.015625
125.06640625,0.48828125,-32.2265625,-15.13671875,-46.875
125.0703125,-9.27734375,-29.296875,-18.06640625,-40.0390625
125.07421875,1.46484375,-25.87890625,-22.94921875,-29.296875
125.078125,1.46484375,-26.85546875,-16.11328125,-36.62109375
125.08203125,-10.7421875,-25.390625,-2.9296875,-39.55078125
125.0859375,-26.85546875,-27.34375,-7.32421875,-31.73828125
125.08984375,-36.1328125,-29.78515625,-18.5546875,-32.71484375
125.09375,-24.90234375,-25.87890625,-19.04296875,-39.55078125
125.09765625,-27.83203125,-27.83203125,-13.18359375,-25.390625
125.1015625,-40.52734375,-31.25,-9.765625,-12.20703125
125.10546875,-41.9921875,-29.78515625,-8.7890625,-3.41796875
125.109375,-53.22265625,-33.203125,-6.34765625,22.4609375
125.11328125,-56.640625,-29.78515625,-5.859375,18.06640625
125.1171875,-54.6875,-30.76171875,-6.8359375,3.90625
125.12109375,-56.15234375,-40.0390625,-9.765625,2.9296875
125.125,-57.12890625,-39.55078125,-21.97265625,-1.953125
125.12890625,-54.19921875,-36.1328125,-20.5078125,2.9296875
125.1328125,-53.22265625,-38.0859375,-12.20703125,-6.8359375
125.13671875,-50.78125,-35.15625,-15.625,-12.20703125
125.140625,-52.24609375,-29.296875,-20.99609375,-8.30078125
125.14453125,-62.98828125,-32.2265625,-19.53125,-21.97265625
125.1484375,-58.59375,-34.66796875,-18.5546875,-20.5078125
125.15234375,-53.7109375,-30.2734375,-19.53125,-15.13671875
125.15625,-45.41015625,-32.71484375,-23.92578125,-28.80859375
125.16015625,-43.9453125,-31.25,-23.92578125,-30.2734375
125.1640625,-48.33984375,-26.3671875,-19.04296875,-16.6015625
125.16796875,-49.8046875,-33.69140625,-28.3203125,-19.04296875
125.171875,-56.15234375,-40.52734375,-34.66796875,-30.2734375
125.17578125,-61.5234375,-39.0625,-31.73828125,-23.92578125
125.1796875,-60.546875,-38.57421875,-26.85546875,0.48828125
125.18359375,-62.5,-42.96875,-27.34375,4.39453125
125.1875,-70.3125,-44.43359375,-26.3671875,8.7890625
125.19140625,-67.87109375,-37.59765625,-16.11328125,4.8828125
125.1953125,-70.80078125,-33.69140625,-17.08984375,-3.90625
125.19921875,-63.96484375,-34.66796875,-19.04296875,10.25390625
125.203125,-57.12890625,-37.59765625,-17.578125,12.20703125
125.20703125,-64.453125,-37.59765625,-20.01953125,10.25390625
125.2109375,-64.453125,-39.55078125,-24.90234375,9.27734375
125.21484375,-73.2421875,-43.45703125,-22.94921875,15.625
125.21875,-83.984375,-42.96875,-27.34375,3.90625
125.22265625,-73.2421875,-36.62109375,-28.3203125,-1.46484375
125.2265625,-61.5234375,-31.73828125,-20.5078125,2.9296875
125.23046875,-63.96484375,-37.59765625,-18.06640625,11.23046875
125.234375,-58.10546875,-37.109375,-21.484375,30.76171875
125.23828125,-53.7109375,-33.203125,-28.3203125,28.80859375
125.2421875,-55.17578125,-34.66796875,-24.90234375,13.18359375
125.24609375,-56.15234375,-35.15625,-19.04296875,1.46484375
125.25,-48.33984375,-31.73828125,-16.6015625,1.953125
125.25390625,-34.1796875,-32.2265625,-18.5546875,-2.44140625
125.2578125,-35.64453125,-37.109375,-20.5078125,-4.39453125
125.26171875,-34.1796875,-31.25,-17.08984375,0.0
125.265625,-32.71484375,-27.34375,-9.765625,-4.8828125
125.26953125,-25.87890625,-28.3203125,-10.7421875,-8.7890625
125.2734375,-18.5546875,-25.87890625,-15.13671875,-10.7421875
125.27734375,-27.83203125,-28.3203125,-8.30078125,-12.20703125
125.28125,-37.109375,-29.296875,-8.7890625,-15.625
125.28515625,-42.96875,-29.78515625,-17.578125,-32.2265625
125.2890625,-37.59765625,-24.4140625,-15.13671875,-45.41015625
125.29296875,-30.76171875,-25.87890625,-1.953125,-43.9453125
125.296875,-15.625,-40.0390625,-2.44140625,-19.53125
125.30078125,-6.8359375,-24.4140625,-17.08984375,-26.85546875
125.3046875,-27.83203125,-8.7890625,-13.671875,-75.1953125
125.30859375,-45.41015625,-9.765625,-7.32421875,-91.796875
125.3125,-71.77734375,-2.44140625,-16.11328125,-103.02734375
125.31640625,-79.58984375,6.8359375,-12.20703125,-116.2109375
125.3203125,-94.7265625,9.765625,-12.20703125,-137.20703125
125.32421875,-131.8359375,5.37109375,-24.4140625,-173.33984375
125.328125,-146.97265625,10.25390625,-24.4140625,-191.40625
125.33203125,-167.96875,13.18359375,-20.99609375,-204.1015625
125.3359375,-187.5,16.11328125,-15.625,-203.125
125.33984375,-218.75,28.80859375,-19.53125,-223.14453125
125.34375,-239.2578125,31.25,-29.296875,-245.60546875
125.34765625,-241.69921875,35.15625,-32.71484375,-250.9765625
125.3515625,-262.20703125,42.48046875,-29.78515625,-274.90234375
125.35546875,-267.08984375,39.0625,-31.73828125,-290.0390625
125.359375,-263.671875,46.875,-30.76171875,-301.7578125
125.36328125,-278.80859375,56.640625,-34.1796875,-318.84765625
125.3671875,-261.23046875,62.01171875,-27.34375,-299.31640625
125.37109375,-240.234375,75.68359375,-14.6484375,-272.4609375
125.375,-264.6484375,61.5234375,-46.875,-301.7578125
125.37890625,-291.50390625,30.76171875,-66.89453125,-332.03125
125.3828125,-285.15625,31.73828125,-51.26953125,-332.51953125
125.38671875,-261.71875,49.31640625,-54.6875,-324.21875
125.390625,-261.23046875,38.0859375,-62.98828125,-314.453125
125.39453125,-256.8359375,36.1328125,-48.828125,-305.17578125
125.3984375,-237.79296875,46.875,-45.41015625,-267.578125
125.40234375,-237.3046875,25.390625,-48.828125,-195.3125
125.40625,-224.609375,22.4609375,-41.50390625,-160.64453125
125.41015625,-214.35546875,28.80859375,-53.22265625,-150.87890625
125.4140625,-205.078125,18.06640625,-65.91796875,-144.04296875
125.41796875,-180.6640625,17.08984375,-55.6640625,-133.30078125
125.421875,-166.015625,18.5546875,-49.8046875,-122.55859375
125.42578125,-161.62109375,13.18359375,-50.78125,-132.32421875
125.4296875,-145.99609375,4.39453125,-58.59375,-127.9296875
125.43359375,-110.3515625,3.90625,-57.6171875,-106.93359375
125.4375,-86.42578125,11.23046875,-48.33984375,-105.95703125
125.44140625,-79.1015625,1.46484375,-54.6875,-115.234375
125.4453125,-68.84765625,-11.23046875,-71.2890625,-109.86328125
125.44921875,-36.62109375,0.0,-58.59375,-72.75390625
125.453125,-26.3671875,-1.953125,-53.22265625,-76.171875
125.45703125,-32.2265625,-20.5078125,-64.94140625,-94.7265625
125.4609375,-27.34375,-32.2265625,-63.96484375,-81.0546875
125.46484375,-16.6015625,-36.1328125,-72.75390625,-79.1015625
125.46875,5.37109375,-26.85546875,-66.89453125,-65.4296875
125.47265625,4.8828125,-20.5078125,-55.17578125,-58.59375
125.4765625,11.23046875,-18.5546875,-53.7109375,-61.03515625
125.48046875,29.296875,-21.97265625,-49.8046875,-49.31640625
125.484375,28.3203125,-29.78515625,-46.38671875,-33.69140625
125.48828125,37.109375,-36.1328125,-46.38671875,-18.06640625
125.4921875,43.9453125,-34.1796875,-46.875,-6.34765625
125.49609375,57.6171875,-37.109375,-48.828125,2.9296875
125.5,74.70703125,-34.66796875,-42.96875,16.11328125
125.50390625,74.70703125,-37.59765625,-40.0390625,12.20703125
125.5078125,71.77734375,-42.96875,-46.38671875,9.765625
125.51171875,62.5,-55.17578125,-41.50390625,22.4609375
125.515625,63.96484375,-60.05859375,-39.55078125,21.97265625
125.51953125,62.01171875,-52.24609375,-52.734375,14.16015625
125.5234375,56.640625,-53.22265625,-58.10546875,14.6484375
125.52734375,58.59375,-53.22265625,-37.109375,20.99609375
125.53125,44.43359375,-56.640625,-27.83203125,20.99609375
125.53515625,32.71484375,-61.5234375,-43.9453125,29.78515625
125.5390625,46.38671875,-60.05859375,-41.50390625,42.48046875
125.54296875,46.875,-55.17578125,-32.2265625,40.0390625
125.546875,49.8046875,-51.26953125,-36.62109375,32.71484375
125.55078125,50.78125,-49.8046875,-37.59765625,37.59765625
125.5546875,41.9921875,-55.17578125,-36.62109375,40.52734375
125.55859375,45.8984375,-56.640625,-38.0859375,38.57421875
125.5625,42.96875,-54.19921875,-41.015625,35.64453125
125.56640625,33.203125,-56.15234375,-36.62109375,32.71484375
125.5703125,36.62109375,-48.33984375,-25.87890625,35.64453125
125.57421875,41.50390625,-46.875,-30.76171875,41.015625
125.578125,55.17578125,-38.0859375,-28.3203125,47.8515625
125.58203125,47.8515625,-41.9921875,-28.3203125,38.0859375
125.5859375,39.0625,-50.29296875,-30.2734375,30.76171875
125.58984375,49.8046875,-41.50390625,-33.69140625,20.01953125
125.59375,47.36328125,-41.50390625,-37.109375,23.4375
125.59765625,41.015625,-46.875,-30.76171875,33.203125
125.6015625,28.80859375,-46.38671875,-28.3203125,14.16015625
125.60546875,33.203125,-43.45703125,-19.04296875,5.37109375
125.609375,41.015625,-41.9921875,-20.5078125,16.6015625
125.61328125,31.73828125,-42.96875,-30.2734375,14.6484375
125.6171875,33.203125,-40.52734375,-22.94921875,18.5546875
125.62109375,25.87890625,-44.43359375,-24.4140625,20.99609375
125.625,17.08984375,-51.26953125,-30.76171875,9.765625
125.62890625,23.92578125,-42.48046875,-26.3671875,2.44140625
125.6328125,28.3203125,-38.0859375,-36.62109375,-8.30078125
125.63671875,17.08984375,-48.828125,-55.17578125,-31.25
125.640625,15.625,-55.6640625,-63.4765625,-67.3828125
125.64453125,22.4609375,-56.640625,-53.7109375,-84.47265625
125.6484375,5.37109375,-63.96484375,-47.36328125,-81.54296875
125.65234375,6.8359375,-61.5234375,-30.76171875,-64.453125
125.65625,12.6953125,-56.15234375,-34.1796875,-55.6640625
125.66015625,-3.90625,-69.82421875,-49.31640625,-75.1953125
125.6640625,0.48828125,-65.91796875,-39.55078125,-82.03125
125.66796875,5.37109375,-55.17578125,-32.2265625,-68.84765625
125.671875,12.20703125,-51.26953125,-35.15625,-58.10546875
125.67578125,41.015625,-42.96875,-41.015625,-41.9921875
125.6796875,27.83203125,-40.0390625,-35.15625,-50.29296875
125.68359375,-1.46484375,-39.55078125,-32.2265625,-74.70703125
125.6875,12.20703125,-47.36328125,-32.71484375,-71.77734375
125.69140625,17.578125,-55.17578125,-33.203125,-56.640625
125.6953125,1.953125,-51.26953125,-36.1328125,-62.5
125.69921875,5.859375,-45.41015625,-36.62109375,-71.77734375
125.703125,8.30078125,-45.41015625,-40.52734375,-66.40625
125.70703125,-3.41796875,-46.38671875,-41.9921875,-62.5
125.7109375,-6.34765625,-43.45703125,-38.57421875,-47.36328125
125.71484375,7.32421875,-40.0390625,-44.921875,-27.83203125
125.71875,28.3203125,-39.55078125,-39.55078125,-19.04296875
125.72265625,20.5078125,-46.38671875,-31.73828125,-34.66796875
125.7265625,22.4609375,-41.9921875,-29.296875,-14.6484375
125.73046875,24.4140625,-41.9921875,-35.64453125,-3.90625
125.734375,8.30078125,-41.015625,-32.2265625,-18.5546875
125.73828125,4.39453125,-37.109375,-32.71484375,-25.87890625
125.7421875,8.7890625,-35.15625,-42.48046875,-20.01953125
125.74609375,17.08984375,-37.109375,-42.96875,-12.20703125
125.75,12.6953125,-43.45703125,-43.45703125,-25.390625
125.75390625,4.8828125,-41.50390625,-37.59765625,-30.2734375
125.7578125,4.39453125,-39.0625,-27.83203125,-26.85546875
125.76171875,4.8828125,-39.55078125,-18.06640625,-19.04296875
125.765625,7.8125,-41.50390625,-21.484375,-22.4609375
125.76953125,3.90625,-43.45703125,-32.2265625,-22.94921875
125.7734375,-3.41796875,-41.015625,-33.203125,-22.94921875
125.77734375,-13.18359375,-42.48046875,-29.296875,-30.2734375
125.78125,-15.13671875,-44.43359375,-27.34375,-31.25
125.78515625,-19.04296875,-37.59765625,-23.92578125,-29.78515625
125.7890625,-32.2265625,-37.59765625,-28.80859375,-35.15625
125.79296875,-31.73828125,-41.9921875,-31.25,-43.9453125
125.796875,-20.01953125,-37.109375,-20.5078125,-32.2265625
125.80078125,-12.20703125,-28.80859375,-27.83203125,-27.83203125
125.8046875,-5.37109375,-24.4140625,-41.50390625,-41.9921875
125.80859375,-1.46484375,-31.25,-33.203125,-47.36328125
125.8125,-13.671875,-37.59765625,-30.2734375,-42.48046875
125.81640625,-13.671875,-39.0625,-30.2734375,-32.71484375
125.8203125,-13.18359375,-48.33984375,-35.64453125,-22.94921875
125.82421875,-18.5546875,-42.48046875,-35.15625,-25.87890625
125.828125,-31.25,-39.0625,-25.390625,-35.64453125
125.83203125,-29.78515625,-36.62109375,-28.80859375,-34.1796875
125.8359375,-26.85546875,-31.25,-36.62109375,-28.3203125
125.83984375,-32.2265625,-38.0859375,-29.78515625,-30.76171875
125.84375,-27.83203125,-35.15625,-28.3203125,-26.3671875
125.84765625,-16.11328125,-26.85546875,-32.2265625,-19.53125
125.8515625,-14.16015625,-30.2734375,-27.34375,-18.5546875
125.85546875,-11.71875,-23.4375,-21.97265625,-12.20703125
125.859375,-5.37109375,-19.53125,-28.80859375,-17.578125
125.86328125,-23.4375,-33.69140625,-46.875,-28.3203125
125.8671875,-29.296875,-29.296875,-35.15625,-28.3203125
125.87109375,-17.578125,-26.85546875,-24.4140625,-27.34375
125.875,-16.6015625,-33.69140625,-35.15625,-16.6015625
125.87890625,-16.6015625,-27.83203125,-23.4375,-8.7890625
125.8828125,-18.06640625,-30.76171875,-20.99609375,-14.16015625
125.88671875,-21.97265625,-34.66796875,-29.78515625,-22.94921875
125.890625,-26.85546875,-31.73828125,-29.296875,-25.87890625
125.89453125,-19.04296875,-32.2265625,-18.5546875,-23.4375
125.8984375,-15.625,-33.203125,-20.01953125,-25.390625
125.90234375,-13.18359375,-30.76171875,-24.90234375,-21.484375
125.90625,-11.23046875,-24.4140625,-22.4609375,-13.671875
125.91015625,-13.671875,-26.85546875,-24.90234375,-12.6953125
125.9140625,-9.27734375,-30.76171875,-14.16015625,-10.7421875
125.91796875,-30.2734375,-33.69140625,-15.13671875,-17.578125
125.921875,-37.59765625,-37.59765625,-28.3203125,-25.390625
125.92578125,-26.85546875,-32.71484375,-28.80859375,-28.3203125
125.9296875,-25.87890625,-30.2734375,-22.94921875,-36.1328125
125.93359375,-32.2265625,-31.73828125,-24.4140625,-58.10546875
125.9375,-38.0859375,-29.296875,-27.34375,-77.1484375
125.94140625,-38.57421875,-27.83203125,-18.5546875,-86.9140625
125.9453125,-39.55078125,-23.4375,-25.87890625,-90.33203125
125.94921875,-39.55078125,-22.4609375,-37.109375,-107.91015625
125.953125,-35.64453125,-23.92578125,-33.203125,-126.953125
125.95703125,-28.3203125,-27.34375,-26.85546875,-125.0
125.9609375,-26.3671875,-28.80859375,-21.97265625,-138.18359375
125.96484375,-46.875,-18.06640625,-21.97265625,-170.41015625
125.96875,-52.734375,-13.671875,-24.90234375,-176.7578125
125.97265625,-36.1328125,-18.06640625,-22.94921875,-165.0390625
125.9765625,-36.62109375,-15.625,-25.390625,-151.3671875
125.98046875,-43.9453125,-16.11328125,-31.25,-155.2734375
125.984375,-36.62109375,-15.625,-28.80859375,-155.2734375
125.98828125,-33.69140625,-15.13671875,-21.484375,-150.390625
125.9921875,-38.57421875,-14.16015625,-20.01953125,-141.6015625
125.99609375,-43.45703125,-18.5546875,-26.85546875,-136.23046875
126.0,-35.15625,-23.4375,-26.3671875,-142.08984375
126.00390625,-28.3203125,-24.4140625,-25.87890625,-141.11328125
126.0078125,-24.90234375,-22.4609375,-27.34375,-123.53515625
126.01171875,-23.4375,-27.34375,-28.80859375,-104.00390625
126.015625,-30.76171875,-28.3203125,-25.390625,-104.00390625
126.01953125,-35.64453125,-24.90234375,-20.5078125,-101.5625
126.0234375,-37.59765625,-28.3203125,-26.3671875,-84.47265625
126.02734375,-36.1328125,-28.80859375,-32.2265625,-70.80078125
126.03125,-24.90234375,-20.99609375,-29.78515625,-50.78125
126.03515625,-29.296875,-19.53125,-28.3203125,-42.96875
126.0390625,-35.64453125,-26.3671875,-31.73828125,-47.36328125
126.04296875,-29.78515625,-22.94921875,-23.92578125,-38.0859375
126.046875,-17.578125,-16.6015625,-21.484375,-28.3203125
126.05078125,-28.80859375,-18.06640625,-28.80859375,-38.57421875
126.0546875,-39.0625,-17.578125,-24.4140625,-41.50390625
126.05859375,-24.90234375,-19.04296875,-15.13671875,-20.01953125
126.0625,-30.76171875,-25.87890625,-16.6015625,-9.765625
126.06640625,-47.36328125,-26.85546875,-27.83203125,-14.6484375
126.0703125,-32.2265625,-21.484375,-24.4140625,7.8125
126.07421875,-22.4609375,-20.01953125,-19.04296875,21.484375
126.078125,-26.85546875,-18.5546875,-22.94921875,11.23046875
126.08203125,-29.296875,-15.625,-23.92578125,8.7890625
126.0859375,-19.53125,-13.18359375,-27.34375,12.6953125
126.08984375,-16.11328125,-8.30078125,-26.3671875,8.30078125
126.09375,-16.11328125,-6.8359375,-24.4140625,4.39453125
126.09765625,-18.5546875,-10.7421875,-28.80859375,9.27734375
126.1015625,-20.01953125,-16.11328125,-26.3671875,14.6484375
126.10546875,-10.25390625,-22.94921875,-24.4140625,19.04296875
126.109375,-15.13671875,-17.08984375,-30.2734375,24.4140625
126.11328125,-21.484375,-17.08984375,-28.80859375,28.3203125
126.1171875,-30.2734375,-25.390625,-25.390625,19.04296875
126.12109375,-30.2734375,-21.484375,-23.92578125,21.97265625
126.125,-25.390625,-18.06640625,-24.4140625,30.76171875
126.12890625,-23.92578125,-14.6484375,-25.87890625,27.83203125
126.1328125,-12.20703125,-8.7890625,-23.4375,33.203125
126.13671875,-23.4375,-14.16015625,-18.06640625,18.5546875
126.140625,-31.25,-18.5546875,-21.484375,13.671875
126.14453125,-23.92578125,-16.11328125,-31.73828125,14.16015625
126.1484375,-23.92578125,-13.18359375,-27.34375,9.27734375
126.15234375,-25.87890625,-15.625,-24.4140625,18.5546875
126.15625,-25.390625,-17.08984375,-23.4375,24.4140625
126.16015625,-18.06640625,-16.6015625,-21.484375,8.7890625
126.1640625,-23.4375,-23.4375,-26.85546875,-8.30078125
126.16796875,-20.01953125,-24.4140625,-27.83203125,-9.765625
126.171875,-13.671875,-23.4375,-28.3203125,-22.94921875
126.17578125,-5.859375,-21.97265625,-26.85546875,-19.53125
126.1796875,-4.8828125,-16.6015625,-32.71484375,-11.23046875
126.18359375,-8.7890625,-11.23046875,-29.78515625,0.9765625
126.1875,-5.37109375,-10.25390625,-21.484375,8.7890625
126.19140625,-5.37109375,-12.20703125,-23.92578125,7.32421875
126.1953125,-8.7890625,-16.11328125,-29.296875,13.671875
126.19921875,-3.41796875,-18.06640625,-30.2734375,16.6015625
126.203125,2.44140625,-16.11328125,-31.25,14.6484375
126.20703125,-8.7890625,-9.765625,-29.78515625,19.04296875
126.2109375,-14.6484375,-9.765625,-26.85546875,17.08984375
126.21484375,-10.7421875,-17.578125,-30.76171875,1.46484375
126.21875,-6.8359375,-11.71875,-29.296875,-3.90625
126.22265625,2.9296875,-6.8359375,-26.3671875,-0.48828125
126.2265625,-1.953125,-8.30078125,-27.34375,-1.953125
126.23046875,-14.16015625,-11.71875,-25.390625,0.9765625
126.234375,-11.71875,-14.6484375,-28.80859375,2.9296875
126.23828125,-11.71875,-13.18359375,-35.64453125,-13.18359375
126.2421875,-11.71875,-14.16015625,-35.64453125,-27.34375
126.24609375,-15.625,-19.04296875,-34.1796875,-25.390625
126.25,-16.6015625,-13.671875,-33.69140625,-20.01953125
126.25390625,-2.44140625,-5.37109375,-32.2265625,-18.5546875
126.2578125,2.9296875,-7.32421875,-28.80859375,-19.04296875
126.26171875,-1.953125,-10.25390625,-28.3203125,-8.7890625
126.265625,-4.8828125,-6.8359375,-20.5078125,-7.8125
126.26953125,-9.765625,-6.34765625,-18.06640625,-16.6015625
126.2734375,-6.8359375,-8.30078125,-22.94921875,-24.4140625
126.27734375,-4.8828125,-13.671875,-22.4609375,-36.1328125
126.28125,-3.41796875,-15.625,-25.87890625,-46.38671875
126.28515625,-4.8828125,-12.20703125,-24.4140625,-61.5234375
126.2890625,-10.7421875,-9.765625,-24.90234375,-68.84765625
126.29296875,-27.83203125,-15.13671875,-22.94921875,-60.05859375
126.296875,-57.12890625,-16.11328125,-24.90234375,-48.33984375
126.30078125,-78.125,-8.30078125,-28.80859375,-50.29296875
126.3046875,-95.703125,-8.30078125,-32.2265625,-49.31640625
126.30859375,-95.703125,-6.8359375,-29.296875,-35.15625
126.3125,-91.30859375,-6.8359375,-25.390625,-37.59765625
126.31640625,-106.4453125,-15.625,-29.78515625,-40.52734375
126.3203125,-103.515625,-12.20703125,-24.4140625,-26.85546875
126.32421875,-90.8203125,-9.765625,-25.390625,-16.6015625
126.328125,-93.75,-10.25390625,-29.296875,-12.20703125
126.33203125,-78.125,-6.8359375,-25.87890625,-1.953125
126.3359375,-70.80078125,-4.39453125,-21.484375,0.9765625
126.33984375,-70.80078125,-1.953125,-20.01953125,4.39453125
126.34375,-63.96484375,-4.39453125,-19.04296875,26.3671875
126.34765625,-64.453125,-7.32421875,-17.578125,27.83203125
126.3515625,-69.3359375,-8.30078125,-20.01953125,18.5546875
126.35546875,-62.5,-11.23046875,-22.94921875,18.06640625
126.359375,-53.7109375,-16.11328125,-19.53125,14.6484375
126.36328125,-54.19921875,-9.765625,-20.5078125,16.11328125
126.3671875,-64.453125,-8.7890625,-16.6015625,12.6953125
126.37109375,-57.6171875,-10.7421875,-12.6953125,15.625
126.375,-46.38671875,-9.27734375,-18.06640625,23.4375
126.37890625,-51.7578125,-13.18359375,-27.34375,22.94921875
126.3828125,-48.33984375,-13.671875,-25.87890625,26.3671875
126.38671875,-46.38671875,-11.71875,-21.484375,34.1796875
126.390625,-52.24609375,-9.27734375,-17.08984375,50.29296875
126.39453125,-54.6875,-10.7421875,-12.20703125,53.22265625
126.3984375,-44.921875,-10.25390625,-21.97265625,43.9453125
126.40234375,-23.92578125,-10.7421875,-24.4140625,41.015625
126.40625,-28.3203125,-15.625,-15.625,43.45703125
126.41015625,-42.96875,-18.06640625,-16.11328125,40.0390625
126.4140625,-14.6484375,-14.16015625,-20.5078125,40.0390625
126.41796875,-1.953125,-13.671875,-25.87890625,39.55078125
126.421875,-9.765625,-11.71875,-27.34375,38.57421875
126.42578125,-9.765625,-8.30078125,-25.87890625,38.57421875
126.4296875,-17.578125,-9.765625,-25.390625,38.57421875
126.43359375,-13.18359375,-7.8125,-18.5546875,47.8515625
126.4375,-26.3671875,-9.765625,-13.18359375,57.6171875
126.44140625,-49.31640625,-12.20703125,-19.04296875,55.6640625
126.4453125,-47.36328125,-14.6484375,-25.87890625,45.41015625
126.44921875,-43.9453125,-20.5078125,-26.3671875,43.45703125
126.453125,-38.57421875,-17.578125,-24.90234375,40.0390625
126.45703125,-29.296875,-12.6953125,-21.484375,36.1328125
126.4609375,-31.73828125,-17.08984375,-26.3671875,39.0625
126.46484375,-36.1328125,-24.4140625,-35.15625,34.1796875
126.46875,-35.64453125,-21.484375,-25.390625,22.94921875
126.47265625,-32.2265625,-18.5546875,-20.5078125,15.13671875
126.4765625,-33.203125,-23.92578125,-23.92578125,13.18359375
126.48046875,-43.9453125,-24.4140625,-23.92578125,8.30078125
126.484375,-39.0625,-22.94921875,-24.90234375,10.7421875
126.48828125,-31.25,-18.5546875,-21.97265625,19.53125
126.4921875,-34.66796875,-23.4375,-25.390625,14.16015625
126.49609375,-23.4375,-23.4375,-30.2734375,9.27734375
126.5,-35.64453125,-18.5546875,-30.2734375,6.34765625
126.50390625,-43.9453125,-17.578125,-28.80859375,3.41796875
126.5078125,-32.71484375,-16.6015625,-27.34375,2.9296875
126.51171875,-29.296875,-22.94921875,-27.34375,4.39453125
126.515625,-26.85546875,-23.92578125,-23.4375,15.625
126.51953125,-23.4375,-14.16015625,-22.94921875,21.484375
126.5234375,-27.34375,-8.30078125,-23.4375,-0.9765625
126.52734375,-26.85546875,-11.71875,-23.4375,5.859375
126.53125,-16.11328125,-16.11328125,-28.3203125,20.01953125
126.53515625,-13.671875,-17.08984375,-31.73828125,21.97265625
126.5390625,-19.53125,-20.99609375,-30.76171875,23.92578125
126.54296875,-16.11328125,-27.83203125,-27.83203125,24.90234375
126.546875,-5.859375,-28.80859375,-25.87890625,25.87890625
126.55078125,-14.6484375,-21.484375,-25.87890625,14.6484375
126.5546875,-12.20703125,-12.20703125,-21.97265625,3.41796875
126.55859375,-13.671875,-17.578125,-24.90234375,9.27734375
126.5625,-14.16015625,-21.97265625,-24.4140625,20.99609375
126.56640625,-0.9765625,-15.13671875,-18.06640625,23.4375
126.5703125,-12.6953125,-15.625,-17.08984375,31.25
126.57421875,-15.13671875,-19.04296875,-19.53125,41.015625
126.578125,1.953125,-20.01953125,-22.94921875,33.203125
126.58203125,6.34765625,-13.671875,-21.97265625,38.0859375
126.5859375,-7.32421875,-12.20703125,-26.3671875,35.15625
126.58984375,1.953125,-5.859375,-21.97265625,40.0390625
126.59375,16.6015625,-5.37109375,-22.94921875,44.43359375
126.59765625,-3.90625,-20.99609375,-38.0859375,16.6015625
126.6015625,-15.13671875,-18.06640625,-29.78515625,10.7421875
126.60546875,2.9296875,-11.71875,-15.13671875,25.87890625
126.609375,8.30078125,-14.16015625,-15.625,28.80859375
126.61328125,1.953125,-12.20703125,-15.625,23.4375
126.6171875,-3.41796875,-11.23046875,-20.01953125,20.01953125
126.62109375,-6.34765625,-10.25390625,-26.3671875,10.7421875
126.625,-9.27734375,-10.7421875,-25.87890625,10.7421875
126.62890625,-3.90625,-9.765625,-21.484375,15.13671875
126.6328125,-8.30078125,-11.23046875,-19.04296875,21.97265625
126.63671875,-2.9296875,-10.25390625,-23.92578125,35.64453125
126.640625,4.39453125,-10.25390625,-20.01953125,41.015625
126.64453125,-8.7890625,-18.06640625,-15.625,35.64453125
126.6484375,-4.39453125,-15.625,-19.53125,33.203125
126.65234375,5.37109375,-12.20703125,-22.94921875,41.9921875
126.65625,4.8828125,-13.671875,-23.92578125,31.73828125
126.66015625,-19.53125,-17.08984375,-19.04296875,5.859375
126.6640625,-35.64453125,-20.01953125,-20.01953125,-0.9765625
126.66796875,-24.4140625,-18.5546875,-19.04296875,7.8125
126.671875,-22.94921875,-16.11328125,-22.4609375,3.90625
126.67578125,-39.55078125,-14.6484375,-28.80859375,-4.8828125
126.6796875,-44.921875,-12.20703125,-30.76171875,-14.6484375
126.68359375,-38.57421875,-9.27734375,-32.2265625,-11.71875
126.6875,-36.62109375,-12.6953125,-32.2265625,1.953125
126.69140625,-45.41015625,-16.11328125,-28.3203125,6.34765625
126.6953125,-57.12890625,-20.99609375,-24.90234375,11.23046875
126.69921875,-50.29296875,-19.53125,-28.80859375,5.37109375
126.703125,-37.59765625,-15.625,-36.62109375,-12.6953125
126.70703125,-32.71484375,-11.23046875,-29.296875,-2.9296875
126.7109375,-37.59765625,-3.90625,-18.06640625,2.9296875
126.71484375,-56.15234375,-17.08984375,-24.90234375,-11.71875
126.71875,-58.10546875,-23.92578125,-35.15625,-10.7421875
126.72265625,-44.921875,-15.625,-32.71484375,-22.94921875
126.7265625,-32.71484375,-19.04296875,-25.390625,-16.6015625
126.73046875,-33.203125,-25.390625,-21.97265625,12.20703125
126.734375,-45.41015625,-19.04296875,-27.83203125,15.13671875
126.73828125,-43.45703125,-14.16015625,-25.390625,4.39453125
126.7421875,-42.48046875,-18.5546875,-21.97265625,1.46484375
126.74609375,-45.8984375,-19.04296875,-26.3671875,-1.953125
126.75,-43.9453125,-15.13671875,-23.92578125,-16.11328125
126.75390625,-39.55078125,-15.13671875,-20.5078125,-28.80859375
126.7578125,-31.25,-18.5546875,-20.5078125,-24.4140625
126.76171875,-27.34375,-20.01953125,-28.3203125,-33.203125
126.765625,-17.08984375,-17.578125,-33.69140625,-34.1796875
126.76953125,-10.7421875,-13.18359375,-27.34375,-20.99609375
126.7734375,-23.92578125,-8.30078125,-23.4375,-21.484375
126.77734375,-9.27734375,-9.27734375,-23.4375,-12.6953125
126.78125,-2.44140625,-14.16015625,-27.83203125,-0.48828125
126.78515625,-9.765625,-13.671875,-25.390625,-2.44140625
126.7890625,-20.01953125,-14.16015625,-19.04296875,-12.20703125
126.79296875,-22.94921875,-16.11328125,-24.4140625,-16.6015625
126.796875,-20.01953125,-15.625,-21.97265625,-23.4375
126.80078125,-21.97265625,-13.671875,-16.6015625,-26.85546875
126.8046875,-21.484375,-14.16015625,-20.01953125,-20.5078125
126.80859375,-33.69140625,-13.671875,-20.99609375,-25.87890625
126.8125,-30.76171875,-13.18359375,-18.5546875,-21.484375
126.81640625,-33.69140625,-14.16015625,-19.04296875,-36.62109375
126.8203125,-42.96875,-11.71875,-21.97265625,-56.15234375
126.82421875,-51.7578125,-11.71875,-24.90234375,-74.70703125
126.828125,-59.5703125,-8.30078125,-18.06640625,-95.703125
126.83203125,-60.546875,-2.9296875,-16.6015625,-96.19140625
126.8359375,-66.89453125,-7.8125,-24.4140625,-101.07421875
126.83984375,-68.359375,-1.953125,-21.484375,-100.09765625
126.84375,-78.125,3.41796875,-25.87890625,-97.65625
126.84765625,-76.66015625,3.41796875,-19.04296875,-83.0078125
126.8515625,-75.1953125,8.7890625,-7.8125,-82.03125
126.85546875,-88.37890625,13.18359375,-10.25390625,-88.8671875
126.859375,-100.09765625,8.30078125,-13.18359375,-89.84375
126.86328125,-95.21484375,5.37109375,-0.9765625,-86.42578125
126.8671875,-86.9140625,10.7421875,4.8828125,-75.68359375
126.87109375,-103.02734375,16.11328125,0.48828125,-83.49609375
126.875,-104.00390625,21.97265625,-0.48828125,-96.6796875
126.87890625,-95.703125,22.4609375,0.0,-88.37890625
126.8828125,-112.79296875,23.4375,-5.859375,-97.65625
126.88671875,-120.1171875,20.99609375,-9.765625,-105.46875
126.890625,-118.1640625,15.13671875,-2.44140625,-108.88671875
126.89453125,-118.1640625,10.7421875,4.8828125,-115.72265625
126.8984375,-123.046875,7.32421875,8.30078125,-106.4453125
126.90234375,-117.1875,10.25390625,4.39453125,-97.16796875
126.90625,-116.2109375,12.6953125,-0.48828125,-97.16796875
126.91015625,-104.00390625,20.5078125,-3.41796875,-94.23828125
126.9140625,-92.28515625,27.34375,-14.16015625,-82.51953125
126.91796875,-85.44921875,14.16015625,-21.484375,-70.80078125
126.921875,-71.77734375,8.7890625,-20.01953125,-59.5703125
126.92578125,-65.91796875,3.41796875,-22.94921875,-58.59375
126.9296875,-59.08203125,-4.39453125,-15.625,-44.921875
126.93359375,-50.29296875,-2.9296875,-18.06640625,-36.62109375
126.9375,-37.59765625,-8.7890625,-22.94921875,-41.50390625
126.94140625,-28.3203125,-16.11328125,-21.97265625,-28.80859375
126.9453125,-32.2265625,-20.01953125,-31.73828125,-15.625
126.94921875,-33.69140625,-19.53125,-36.62109375,-14.16015625
126.953125,-24.4140625,-18.5546875,-29.78515625,-3.90625
126.95703125,-16.11328125,-17.578125,-29.296875,0.48828125
126.9609375,-5.37109375,-18.5546875,-32.2265625,-2.9296875
126.96484375,-2.9296875,-21.97265625,-33.203125,-4.39453125
126.96875,2.44140625,-29.296875,-38.0859375,-10.25390625
126.97265625,20.5078125,-23.92578125,-39.0625,-6.34765625
126.9765625,10.25390625,-19.04296875,-31.73828125,6.8359375
126.98046875,16.11328125,-21.484375,-30.76171875,14.6484375
126.984375,18.06640625,-20.99609375,-35.15625,22.4609375
126.98828125,3.41796875,-26.85546875,-37.59765625,32.2265625
126.9921875,12.6953125,-33.69140625,-33.203125,38.57421875
126.99609375,25.87890625,-25.87890625,-27.34375,45.41015625
127.0,26.3671875,-23.92578125,-27.83203125,45.8984375
127.00390625,19.53125,-29.78515625,-36.1328125,41.50390625
127.0078125,33.69140625,-31.73828125,-41.50390625,39.0625
127.01171875,41.50390625,-27.34375,-36.1328125,27.83203125
127.015625,45.8984375,-26.3671875,-35.64453125,21.484375
127.01953125,56.640625,-28.3203125,-32.2265625,33.203125
127.0234375,48.828125,-26.85546875,-29.296875,33.69140625
127.02734375,36.62109375,-30.2734375,-31.25,32.71484375
127.03125,31.73828125,-29.78515625,-28.3203125,42.48046875
127.03515625,24.4140625,-24.4140625,-30.76171875,42.96875
127.0390625,20.01953125,-23.92578125,-34.66796875,41.9921875
127.04296875,10.25390625,-29.78515625,-35.15625,33.203125
127.046875,12.20703125,-33.203125,-34.66796875,26.85546875
127.05078125,18.06640625,-27.83203125,-31.25,35.64453125
127.0546875,13.671875,-28.80859375,-28.80859375,44.43359375
127.05859375,20.99609375,-27.34375,-31.73828125,45.8984375
127.0625,20.5078125,-27.34375,-31.25,38.0859375
127.06640625,19.04296875,-28.3203125,-31.73828125,31.25
127.0703125,15.13671875,-27.83203125,-37.59765625,42.48046875
127.07421875,20.5078125,-32.71484375,-37.59765625,46.875
127.078125,20.01953125,-31.25,-29.296875,34.1796875
127.08203125,11.71875,-35.64453125,-31.25,21.484375
127.0859375,16.6015625,-29.296875,-31.73828125,16.11328125
127.08984375,13.671875,-22.4609375,-25.390625,19.04296875
127.09375,16.11328125,-24.90234375,-26.85546875,15.13671875
127.09765625,23.4375,-20.01953125,-33.69140625,3.41796875
127.1015625,25.390625,-20.99609375,-30.76171875,6.34765625
127.10546875,23.4375,-24.4140625,-27.34375,12.20703125
127.109375,13.671875,-25.390625,-28.3203125,17.08984375
127.11328125,11.71875,-25.390625,-25.87890625,14.6484375
127.1171875,22.94921875,-17.08984375,-17.08984375,27.83203125
127.12109375,18.06640625,-14.16015625,-16.6015625,32.71484375
127.125,2.44140625,-25.390625,-21.97265625,10.7421875
127.12890625,-5.859375,-24.4140625,-24.90234375,11.23046875
127.1328125,-3.41796875,-13.671875,-20.01953125,16.6015625
127.13671875,2.44140625,-14.16015625,-12.6953125,18.5546875
127.140625,-1.46484375,-17.578125,-17.578125,10.7421875
127.14453125,-5.859375,-19.53125,-16.11328125,0.48828125
127.1484375,-6.8359375,-20.01953125,-17.578125,-2.44140625
127.15234375,-5.37109375,-19.04296875,-25.390625,-8.7890625
127.15625,9.27734375,-16.11328125,-26.85546875,2.44140625
127.16015625,5.859375,-16.11328125,-21.484375,16.6015625
127.1640625,-1.953125,-16.6015625,-16.11328125,19.04296875
127.16796875,2.44140625,-20.5078125,-25.87890625,13.671875
127.171875,-12.6953125,-22.4609375,-23.92578125,0.48828125
127.17578125,-11.23046875,-20.99609375,-11.71875,-2.9296875
127.1796875,4.39453125,-23.4375,-15.13671875,2.9296875
127.18359375,-2.44140625,-31.25,-24.90234375,4.8828125
127.1875,-3.41796875,-30.76171875,-25.390625,9.27734375
127.19140625,8.30078125,-24.4140625,-21.97265625,22.4609375
127.1953125,9.765625,-21.484375,-24.4140625,22.4609375
127.19921875,6.34765625,-20.01953125,-22.94921875,10.7421875
127.203125,5.37109375,-20.01953125,-20.01953125,0.48828125
127.20703125,10.25390625,-19.04296875,-20.01953125,6.8359375
127.2109375,10.7421875,-19.04296875,-19.04296875,0.48828125
127.21484375,3.90625,-17.08984375,-17.578125,-1.46484375
127.21875,0.0,-15.625,-21.484375,15.625
127.22265625,3.90625,-17.08984375,-22.4609375,8.30078125
127.2265625,2.44140625,-20.01953125,-24.90234375,-4.39453125
127.23046875,-6.34765625,-25.87890625,-29.296875,-21.484375
127.234375,-0.9765625,-22.94921875,-20.99609375,-25.87890625
127.23828125,-1.953125,-19.04296875,-20.01953125,-40.52734375
127.2421875,-5.37109375,-26.85546875,-26.85546875,-54.19921875
127.24609375,-3.90625,-31.25,-27.83203125,-45.41015625
127.25,-1.953125,-25.87890625,-28.80859375,-45.41015625
127.25390625,-3.41796875,-24.90234375,-31.25,-42.48046875
127.2578125,-6.8359375,-27.34375,-31.25,-35.15625
127.26171875,-6.8359375,-20.5078125,-30.2734375,-21.97265625
127.265625,-4.39453125,-20.01953125,-34.66796875,-10.7421875
127.26953125,4.39453125,-25.390625,-33.203125,-4.39453125
127.2734375,-0.9765625,-23.92578125,-25.87890625,-1.953125
127.27734375,-0.48828125,-20.5078125,-19.53125,6.34765625
127.28125,-4.39453125,-22.94921875,-20.01953125,14.6484375
127.28515625,-15.625,-19.53125,-23.92578125,7.32421875
127.2890625,-3.90625,-13.18359375,-20.5078125,14.6484375
127.29296875,0.48828125,-20.5078125,-21.97265625,21.484375
127.296875,-7.8125,-27.34375,-29.78515625,10.25390625
127.30078125,-14.16015625,-26.3671875,-31.25,2.44140625
127.3046875,-10.25390625,-24.4140625,-23.4375,7.32421875
127.30859375,0.0,-17.08984375,-14.6484375,16.6015625
127.3125,6.34765625,-16.11328125,-18.06640625,14.6484375
127.31640625,1.953125,-20.01953125,-23.92578125,11.23046875
127.3203125,9.765625,-18.5546875,-19.04296875,20.5078125
127.32421875,9.27734375,-19.53125,-20.5078125,11.71875
127.328125,0.48828125,-18.06640625,-19.53125,5.859375
127.33203125,5.37109375,-16.11328125,-16.11328125,12.20703125
127.3359375,6.8359375,-14.6484375,-18.06640625,11.23046875
127.33984375,7.8125,-16.6015625,-17.08984375,14.16015625
127.34375,12.6953125,-20.5078125,-15.625,12.20703125
127.34765625,14.6484375,-19.04296875,-16.6015625,8.7890625
127.3515625,10.25390625,-20.01953125,-20.99609375,8.7890625
127.35546875,8.7890625,-24.90234375,-22.94921875,10.25390625
127.359375,14.6484375,-25.87890625,-17.08984375,10.7421875
127.36328125,9.765625,-25.390625,-17.08984375,4.8828125
127.3671875,8.30078125,-24.4140625,-22.94921875,0.0
127.37109375,0.0,-22.94921875,-21.97265625,-1.953125
127.375,-7.8125,-22.4609375,-23.92578125,1.46484375
127.37890625,-4.39453125,-24.4140625,-24.4140625,0.48828125
127.3828125,-8.30078125,-23.92578125,-25.390625,-3.41796875
127.38671875,-14.16015625,-26.3671875,-23.92578125,10.25390625
127.390625,-14.6484375,-37.109375,-22.94921875,13.18359375
127.39453125,-12.6953125,-40.52734375,-27.34375,4.39453125
127.3984375,-17.578125,-36.1328125,-28.80859375,-7.8125
127.40234375,-25.87890625,-34.1796875,-27.34375,-19.53125
127.40625,-20.5078125,-30.76171875,-29.296875,-19.04296875
127.41015625,-11.71875,-24.90234375,-23.4375,-8.7890625
127.4140625,-18.5546875,-23.4375,-17.08984375,0.9765625
127.41796875,-20.99609375,-30.76171875,-19.04296875,5.859375
127.421875,-29.296875,-31.73828125,-22.4609375,-13.671875
127.42578125,-27.83203125,-27.83203125,-26.85546875,-22.94921875
127.4296875,-26.3671875,-27.83203125,-28.3203125,-23.4375
127.43359375,-33.203125,-34.1796875,-33.203125,-24.90234375
127.4375,-20.99609375,-36.1328125,-35.64453125,-19.53125
127.44140625,-20.5078125,-23.92578125,-33.203125,-20.01953125
127.4453125,-26.3671875,-23.4375,-31.25,-25.390625
127.44921875,-38.57421875,-30.2734375,-26.85546875,-36.62109375
127.453125,-42.48046875,-28.3203125,-27.34375,-30.2734375
127.45703125,-40.52734375,-31.73828125,-33.69140625,-36.1328125
127.4609375,-42.96875,-26.3671875,-36.1328125,-46.875
127.46484375,-37.109375,-16.11328125,-38.57421875,-33.203125
127.46875,-27.83203125,-20.01953125,-38.0859375,-16.6015625
127.47265625,-17.08984375,-19.04296875,-38.57421875,-10.7421875
127.4765625,-20.5078125,-15.625,-44.921875,-11.23046875
127.48046875,-48.33984375,-29.296875,-38.57421875,-28.3203125
127.484375,-46.38671875,-34.66796875,-22.94921875,-17.578125
127.48828125,-10.7421875,-30.2734375,-25.87890625,-0.48828125
127.4921875,8.30078125,-29.78515625,-30.76171875,-1.953125
127.49609375,-7.32421875,-33.69140625,-29.296875,-7.32421875
127.5,-11.71875,-37.59765625,-31.25,-8.7890625
127.50390625,19.53125,-35.64453125,-29.296875,18.06640625
127.5078125,33.203125,-35.15625,-20.01953125,34.66796875
127.51171875,20.01953125,-36.1328125,-21.484375,38.57421875
127.515625,35.64453125,-31.25,-31.25,55.6640625
127.51953125,41.50390625,-26.85546875,-25.390625,81.0546875
127.5234375,29.296875,-27.83203125,-21.484375,85.44921875
127.52734375,46.875,-30.2734375,-28.3203125,92.28515625
127.53125,52.734375,-30.76171875,-21.97265625,107.91015625
127.53515625,54.6875,-29.296875,-15.625,99.609375
127.5390625,62.5,-33.69140625,-8.7890625,97.16796875
127.54296875,59.5703125,-35.15625,-4.8828125,100.5859375
127.546875,54.6875,-32.2265625,-7.8125,102.5390625
127.55078125,67.3828125,-36.62109375,-8.7890625,101.5625
127.5546875,79.58984375,-40.0390625,-11.23046875,92.28515625
127.55859375,90.33203125,-28.3203125,-14.16015625,82.03125
127.5625,83.984375,-21.97265625,-20.99609375,59.5703125
127.56640625,69.3359375,-26.3671875,-22.4609375,57.12890625
127.5703125,73.2421875,-31.25,-18.5546875,61.03515625
127.57421875,62.98828125,-40.52734375,-12.20703125,53.22265625
127.578125,65.4296875,-39.0625,-11.71875,58.59375
127.58203125,76.66015625,-29.296875,-25.390625,51.7578125
127.5859375,69.3359375,-29.78515625,-24.4140625,49.31640625
127.58984375,74.21875,-36.1328125,-19.53125,58.10546875
127.59375,78.125,-34.66796875,-27.34375,55.17578125
127.59765625,74.21875,-27.34375,-30.2734375,49.8046875
127.6015625,75.68359375,-24.4140625,-24.90234375,51.26953125
127.60546875,59.08203125,-28.80859375,-24.4140625,44.43359375
127.609375,34.1796875,-29.78515625,-26.85546875,27.34375
127.61328125,24.90234375,-30.76171875,-18.5546875,24.90234375
127.6171875,26.85546875,-32.2265625,-17.08984375,26.3671875
127.62109375,26.85546875,-33.203125,-26.85546875,25.390625
127.625,28.80859375,-29.78515625,-30.2734375,19.53125
127.62890625,17.578125,-25.390625,-24.90234375,3.41796875
127.6328125,-0.9765625,-30.2734375,-23.92578125,-25.390625
127.63671875,-4.39453125,-31.25,-26.85546875,-23.92578125
127.640625,-7.8125,-29.296875,-27.34375,-20.01953125
127.64453125,-15.13671875,-31.25,-25.390625,-31.25
127.6484375,-20.01953125,-27.83203125,-22.94921875,-19.53125
127.65234375,-21.484375,-24.90234375,-23.92578125,-14.6484375
127.65625,-33.69140625,-22.94921875,-27.34375,-19.04296875
127.66015625,-34.1796875,-20.99609375,-25.87890625,-7.8125
127.6640625,-28.80859375,-18.06640625,-20.99609375,-7.8125
127.66796875,-29.78515625,-20.01953125,-19.53125,-18.06640625
127.671875,-24.90234375,-20.5078125,-18.5546875,-15.13671875
127.67578125,-24.90234375,-19.53125,-21.484375,-20.5078125
127.6796875,-17.578125,-20.5078125,-21.97265625,-28.3203125
127.68359375,-20.01953125,-18.5546875,-21.484375,-23.4375
127.6875,-23.92578125,-19.04296875,-19.53125,-12.20703125
127.69140625,-24.90234375,-15.625,-16.11328125,-9.765625
127.6953125,-41.9921875,-14.16015625,-26.85546875,-6.8359375
127.69921875,-52.734375,-23.92578125,-33.69140625,-14.16015625
127.703125,-41.9921875,-21.97265625,-18.06640625,-20.01953125
127.70703125,-33.69140625,-5.37109375,-6.8359375,-18.06640625
127.7109375,-34.1796875,-9.765625,-16.11328125,-20.01953125
127.71484375,-38.57421875,-13.671875,-14.6484375,-20.99609375
127.71875,-42.48046875,-10.7421875,-9.27734375,-32.71484375
127.72265625,-37.109375,-16.11328125,-15.13671875,-41.50390625
127.7265625,-30.76171875,-15.13671875,-23.92578125,-44.921875
127.73046875,-29.78515625,-14.6484375,-26.85546875,-40.52734375
127.734375,-29.296875,-10.7421875,-19.04296875,-37.109375
127.73828125,-43.9453125,-12.20703125,-20.01953125,-41.9921875
127.7421875,-49.8046875,-16.11328125,-19.53125,-36.1328125
127.74609375,-37.59765625,-12.20703125,-14.6484375,-26.3671875
127.75,-33.69140625,-11.71875,-24.4140625,-17.08984375
127.75390625,-42.96875,-11.23046875,-37.109375,-9.27734375
127.7578125,-26.3671875,-12.20703125,-34.1796875,-4.8828125
127.76171875,-21.484375,-20.99609375,-24.90234375,-16.11328125
127.765625,-34.1796875,-23.4375,-23.92578125,-22.94921875
127.76953125,-35.64453125,-16.6015625,-22.94921875,-29.78515625
127.7734375,-43.9453125,-14.6484375,-16.11328125,-32.71484375
127.77734375,-35.64453125,-11.23046875,-2.9296875,-9.27734375
127.78125,-30.2734375,-11.71875,-8.30078125,-19.53125
127.78515625,-41.9921875,-17.578125,-22.94921875,-28.80859375
127.7890625,-46.38671875,-19.04296875,-26.85546875,-21.97265625
127.79296875,-44.921875,-13.18359375,-29.78515625,-37.59765625
127.796875,-43.9453125,-9.765625,-29.296875,-41.50390625
127.80078125,-39.55078125,-12.20703125,-30.76171875,-51.7578125
127.8046875,-41.015625,-19.53125,-36.1328125,-67.87109375
127.80859375,-47.36328125,-21.484375,-46.875,-63.96484375
127.8125,-48.828125,-32.2265625,-47.36328125,-75.1953125
127.81640625,-40.0390625,-33.203125,-28.80859375,-103.515625
127.8203125,-39.0625,-30.2734375,-27.34375,-141.11328125
127.82421875,-46.875,-30.76171875,-25.390625,-194.3359375
127.828125,-39.55078125,-11.71875,-28.80859375,-236.81640625
127.83203125,-33.69140625,-12.6953125,-39.55078125,-261.71875
127.8359375,-29.296875,-20.5078125,-31.73828125,-250.9765625
127.83984375,-28.80859375,-22.94921875,-36.62109375,-242.67578125
127.84375,-16.11328125,-26.3671875,-42.96875,-241.2109375
127.84765625,-6.34765625,-25.87890625,-38.0859375,-231.4453125
127.8515625,-5.37109375,-24.90234375,-35.64453125,-205.56640625
127.85546875,0.0,-21.97265625,-40.0390625,-187.98828125
127.859375,0.0,-16.6015625,-40.52734375,-188.4765625
127.86328125,9.27734375,-12.20703125,-40.0390625,-178.7109375
127.8671875,-3.90625,-11.71875,-47.36328125,-165.52734375
127.87109375,-6.34765625,-11.71875,-43.9453125,-160.15625
127.875,-2.44140625,-18.06640625,-48.33984375,-164.0625
127.87890625,-27.83203125,-26.85546875,-56.15234375,-162.59765625
127.8828125,-37.59765625,-28.3203125,-41.50390625,-159.66796875
127.88671875,-36.62109375,-28.80859375,-37.109375,-172.8515625
127.890625,-40.0390625,-26.85546875,-36.62109375,-179.19921875
127.89453125,-35.64453125,-14.6484375,-35.64453125,-160.15625
127.8984375,-35.64453125,-10.25390625,-44.43359375,-150.390625
127.90234375,-48.33984375,-24.4140625,-42.48046875,-158.69140625
127.90625,-40.0390625,-17.578125,-31.73828125,-124.0234375
127.91015625,-32.71484375,-9.765625,-29.78515625,-92.7734375
127.9140625,-38.0859375,-16.11328125,-35.64453125,-97.65625
127.91796875,-39.55078125,-19.04296875,-34.1796875,-82.51953125
127.921875,-47.8515625,-19.04296875,-30.76171875,-63.4765625
127.92578125,-51.7578125,-20.01953125,-31.73828125,-50.29296875
127.9296875,-45.41015625,-10.7421875,-34.66796875,-41.50390625
127.93359375,-48.33984375,-10.7421875,-37.59765625,-48.828125
127.9375,-60.05859375,-21.97265625,-36.62109375,-62.01171875
127.94140625,-55.17578125,-16.6015625,-30.76171875,-63.4765625
127.9453125,-47.36328125,-15.13671875,-32.2265625,-64.94140625
127.94921875,-60.05859375,-23.4375,-41.015625,-65.91796875
127.953125,-58.59375,-27.34375,-46.38671875,-36.62109375
127.95703125,-48.33984375,-20.99609375,-42.96875,-24.90234375
127.9609375,-43.45703125,-12.6953125,-36.62109375,-38.0859375
127.96484375,-41.50390625,-21.484375,-44.43359375,-27.34375
127.96875,-45.41015625,-18.5546875,-43.9453125,-16.6015625
127.97265625,-36.1328125,-19.53125,-34.1796875,-25.87890625
127.9765625,-30.2734375,-23.4375,-37.109375,-38.0859375
127.98046875,-34.66796875,-6.34765625,-34.66796875,-50.29296875
127.984375,-29.296875,-6.34765625,-35.15625,-51.7578125
127.98828125,-34.1796875,-9.765625,-40.52734375,-51.26953125
127.9921875,-30.2734375,-3.41796875,-37.59765625,-36.1328125
127.99609375,-27.34375,-6.8359375,-37.109375,-36.62109375
128.0,-21.484375,-4.39453125,-29.78515625,-46.38671875
128.00390625,-16.6015625,-3.90625,-28.3203125,-54.6875
128.0078125,-24.4140625,-11.71875,-37.109375,-49.8046875
128.01171875,-25.390625,-10.7421875,-42.96875,-36.62109375
128.015625,-23.92578125,-8.30078125,-41.015625,-49.8046875
128.01953125,-13.671875,-10.25390625,-29.296875,-38.0859375
128.0234375,-8.30078125,-2.9296875,-28.3203125,-15.625
128.02734375,-2.9296875,1.46484375,-44.921875,-9.27734375
128.03125,-3.90625,-6.8359375,-44.43359375,-14.16015625
128.03515625,0.9765625,7.32421875,-15.625,-0.9765625
128.0390625,1.953125,4.39453125,-19.04296875,0.9765625
128.04296875,-8.7890625,-14.16015625,-31.25,-11.23046875
128.046875,-17.08984375,-10.25390625,-34.66796875,-4.8828125
128.05078125,-13.671875,-9.765625,-27.34375,2.9296875
128.0546875,-15.13671875,-20.01953125,-16.6015625,-0.48828125
128.05859375,-10.25390625,-13.671875,-34.66796875,-3.41796875
128.0625,9.27734375,2.44140625,-42.96875,14.6484375
128.06640625,-16.11328125,-11.23046875,-30.76171875,-9.27734375
128.0703125,-22.4609375,-21.484375,-20.01953125,-38.57421875
128.07421875,-3.41796875,-23.92578125,-21.97265625,-30.2734375
128.078125,-7.32421875,-18.06640625,-26.3671875,-10.7421875
128.08203125,0.48828125,-7.8125,-41.50390625,8.30078125
128.0859375,20.01953125,-18.06640625,-41.50390625,0.0
128.08984375,25.390625,-8.7890625,-14.6484375,-20.01953125
128.09375,19.53125,-3.90625,-10.25390625,-29.296875
128.09765625,-11.23046875,-33.69140625,-35.64453125,-59.5703125
128.1015625,-62.5,-56.640625,-43.45703125,-103.02734375
128.10546875,-76.171875,-35.15625,-22.4609375,-97.65625
128.109375,-129.8828125,-2.9296875,-21.484375,-134.27734375
128.11328125,-177.734375,11.23046875,-26.3671875,-186.5234375
128.1171875,-125.48828125,58.59375,-7.32421875,-133.30078125
128.12109375,-138.671875,48.33984375,-12.20703125,-131.34765625
128.125,-226.07421875,-3.41796875,-35.15625,-215.8203125
128.12890625,-239.74609375,56.640625,-26.3671875,-239.2578125
128.1328125,-219.23828125,90.33203125,-11.23046875,-247.0703125
128.13671875,-271.97265625,22.4609375,-42.48046875,-314.94140625
128.140625,-323.2421875,7.32421875,-67.87109375,-357.421875
128.14453125,-269.53125,48.33984375,-3.90625,-307.6171875
128.1484375,-210.9375,81.54296875,25.87890625,-263.18359375
128.15234375,-303.7109375,42.48046875,-8.7890625,-342.28515625
128.15625,-342.28515625,15.13671875,10.25390625,-367.67578125
128.16015625,-305.6640625,32.71484375,21.97265625,-331.54296875
128.1640625,-303.22265625,61.03515625,-11.71875,-334.47265625
128.16796875,-329.1015625,59.08203125,-43.45703125,-372.0703125
128.171875,-314.94140625,41.50390625,-56.15234375,-368.1640625
128.17578125,-305.17578125,38.0859375,-45.8984375,-379.39453125
128.1796875,-309.08203125,14.6484375,-38.57421875,-411.1328125
128.18359375,-245.60546875,9.765625,-40.52734375,-363.76953125
128.1875,-250.9765625,-16.11328125,-35.64453125,-367.1875
128.19140625,-299.8046875,-19.53125,-19.04296875,-393.5546875
128.1953125,-275.390625,10.25390625,0.9765625,-373.046875
128.19921875,-238.76953125,-4.8828125,-18.06640625,-357.91015625
128.203125,-251.46484375,-34.66796875,-41.015625,-400.87890625
128.20703125,-274.90234375,-99.12109375,-57.6171875,-425.29296875
128.2109375,-206.54296875,-124.0234375,-32.2265625,-362.79296875
128.21484375,-194.3359375,-141.11328125,-62.01171875,-366.2109375
128.21875,-262.6953125,-198.2421875,-133.30078125,-423.33984375
128.22265625,-250.48828125,-223.14453125,-94.7265625,-398.92578125
128.2265625,-249.51171875,-205.078125,-78.125,-365.234375
128.23046875,-273.4375,-163.0859375,-104.4921875,-346.19140625
128.234375,-245.1171875,-153.3203125,-104.00390625,-312.5
128.23828125,-219.7265625,-163.0859375,-85.9375,-299.8046875
128.2421875,-217.7734375,-183.10546875,-93.26171875,-314.453125
128.24609375,-187.98828125,-202.63671875,-88.8671875,-292.96875
128.25,-161.1328125,-176.7578125,-88.37890625,-261.23046875
128.25390625,-145.99609375,-174.8046875,-114.74609375,-277.34375
128.2578125,-196.77734375,-214.84375,-114.74609375,-296.875
128.26171875,-167.48046875,-201.171875,-74.21875,-273.92578125
128.265625,-114.2578125,-188.4765625,-67.3828125,-250.48828125
128.26953125,-176.7578125,-176.26953125,-84.9609375,-237.79296875
128.2734375,-127.9296875,-127.9296875,-63.96484375,-175.29296875
128.27734375,-79.1015625,-148.92578125,-90.8203125,-156.25
128.28125,-101.5625,-183.10546875,-100.09765625,-149.90234375
128.28515625,-140.13671875,-173.828125,-79.58984375,-143.5546875
128.2890625,-145.99609375,-187.5,-87.890625,-153.80859375
128.29296875,-74.21875,-169.921875,-89.84375,-126.46484375
128.296875,-62.98828125,-152.34375,-90.8203125,-108.88671875
128.30078125,-48.33984375,-158.69140625,-85.44921875,-84.47265625
128.3046875,-49.31640625,-145.5078125,-85.9375,-68.359375
128.30859375,-77.63671875,-138.671875,-83.49609375,-52.734375
128.3125,-26.85546875,-139.16015625,-78.61328125,-32.71484375
128.31640625,17.578125,-137.6953125,-66.40625,-27.83203125
128.3203125,-11.71875,-134.765625,-61.03515625,2.9296875
128.32421875,-10.7421875,-131.34765625,-77.1484375,28.3203125
128.328125,17.578125,-124.0234375,-71.77734375,21.97265625
128.33203125,-24.4140625,-102.5390625,-60.546875,17.578125
128.3359375,-28.80859375,-108.3984375,-69.82421875,34.66796875
128.33984375,-24.90234375,-114.2578125,-78.125,47.8515625
128.34375,-47.8515625,-107.91015625,-61.5234375,17.578125
128.34765625,-89.84375,-122.55859375,-55.17578125,6.34765625
128.3515625,-120.60546875,-125.0,-56.15234375,14.16015625
128.35546875,-85.9375,-119.62890625,-51.26953125,-16.11328125
128.359375,-72.75390625,-99.609375,-56.640625,-14.16015625
128.36328125,-79.1015625,-99.12109375,-65.4296875,-25.87890625
128.3671875,-47.36328125,-103.02734375,-69.82421875,-47.36328125
128.37109375,-49.8046875,-94.7265625,-67.87109375,-44.43359375
128.375,-72.75390625,-98.6328125,-67.87109375,-65.91796875
128.37890625,-83.984375,-99.12109375,-58.59375,-75.68359375
128.3828125,-99.12109375,-90.8203125,-55.17578125,-59.08203125
128.38671875,-97.65625,-97.16796875,-48.33984375,-45.41015625
128.390625,-98.6328125,-105.95703125,-49.31640625,-62.98828125
128.39453125,-96.6796875,-80.56640625,-45.8984375,-88.37890625
128.3984375,-105.95703125,-55.6640625,-37.59765625,-123.53515625
128.40234375,-75.68359375,-42.96875,-41.50390625,-130.859375
128.40625,-86.9140625,-68.359375,-53.7109375,-131.34765625
128.41015625,-110.3515625,-71.2890625,-57.6171875,-152.34375
128.4140625,-109.375,-55.6640625,-42.48046875,-144.53125
128.41796875,-102.05078125,-61.5234375,-33.203125,-109.375
128.421875,-75.68359375,-53.22265625,-41.9921875,-104.4921875
128.42578125,-77.1484375,-68.84765625,-61.5234375,-108.3984375
128.4296875,-83.984375,-71.2890625,-43.45703125,-106.4453125
128.43359375,-104.4921875,-56.640625,-39.0625,-94.23828125
128.4375,-148.4375,-56.640625,-53.22265625,-76.171875
128.44140625,-137.20703125,-51.26953125,-53.22265625,-48.828125
128.4453125,-107.421875,-42.48046875,-47.36328125,-49.31640625
128.44921875,-122.55859375,-36.62109375,-36.62109375,-83.49609375
128.453125,-172.36328125,-47.36328125,-44.921875,-100.09765625
128.45703125,-231.4453125,-50.29296875,-60.546875,-90.8203125
128.4609375,-232.91015625,-37.59765625,-49.31640625,-72.265625
128.46484375,-230.46875,-40.0390625,-37.59765625,-65.4296875
128.46875,-222.65625,-41.9921875,-32.2265625,-57.12890625
128.47265625,-217.7734375,-22.94921875,-28.80859375,-36.1328125
128.4765625,-228.02734375,-25.390625,-33.69140625,-23.92578125
128.48046875,-226.07421875,-47.8515625,-37.59765625,-24.90234375
128.484375,-213.37890625,-55.17578125,-45.41015625,-22.4609375
128.48828125,-183.10546875,-35.15625,-25.390625,3.90625
128.4921875,-165.52734375,-5.859375,-16.11328125,28.80859375
128.49609375,-160.15625,-11.23046875,-21.97265625,27.34375
128.5,-147.4609375,-32.71484375,-3.41796875,25.390625
128.50390625,-150.87890625,-18.5546875,8.7890625,23.4375
128.5078125,-185.05859375,-29.78515625,-16.6015625,1.46484375
128.51171875,-202.63671875,-20.99609375,-19.04296875,-14.16015625
128.515625,-175.29296875,-11.71875,-8.30078125,1.46484375
128.51953125,-156.25,-31.25,-16.11328125,12.6953125
128.5234375,-143.06640625,-17.578125,-10.7421875,12.6953125
128.52734375,-129.8828125,-14.16015625,-0.9765625,1.46484375
128.53125,-120.1171875,-23.92578125,-11.23046875,-6.8359375
128.53515625,-98.6328125,-27.34375,-10.7421875,-12.6953125
128.5390625,-105.46875,-11.71875,-1.953125,-37.59765625
128.54296875,-108.88671875,-1.953125,-15.13671875,-54.19921875
128.546875,-117.1875,-13.671875,-30.2734375,-58.59375
128.55078125,-111.81640625,0.48828125,-18.06640625,-54.19921875
128.5546875,-91.796875,2.44140625,-3.41796875,-62.98828125
128.55859375,-107.421875,-26.85546875,-16.11328125,-88.8671875
128.5625,-102.5390625,-22.94921875,-21.484375,-95.703125
128.56640625,-94.7265625,-11.23046875,-28.80859375,-84.47265625
128.5703125,-87.890625,-5.37109375,-38.57421875,-86.9140625
128.57421875,-83.984375,-4.8828125,-24.4140625,-93.75
128.578125,-94.23828125,-17.08984375,-24.90234375,-97.65625
128.58203125,-92.7734375,-15.625,-15.625,-104.00390625
128.5859375,-81.0546875,-17.08984375,-3.41796875,-100.5859375
128.58984375,-69.3359375,-15.625,-5.859375,-74.70703125
128.59375,-72.265625,-6.8359375,-22.4609375,-72.265625
128.59765625,-79.1015625,-5.859375,-20.99609375,-71.77734375
128.6015625,-63.96484375,-4.8828125,-22.4609375,-48.33984375
128.60546875,-73.2421875,-13.18359375,-38.57421875,-51.7578125
128.609375,-88.37890625,-7.32421875,-26.85546875,-48.33984375
128.61328125,-86.9140625,-4.8828125,-14.16015625,-27.83203125
128.6171875,-91.796875,-15.13671875,0.9765625,-0.9765625
128.62109375,-87.890625,-21.97265625,-0.48828125,13.671875
128.625,-63.4765625,-18.5546875,-6.8359375,26.3671875
128.62890625,-53.22265625,-16.11328125,-18.06640625,43.9453125
128.6328125,-74.21875,-26.85546875,-27.83203125,38.0859375
128.63671875,-79.1015625,-33.203125,-20.99609375,19.53125
128.640625,-75.1953125,-29.78515625,-18.5546875,9.765625
128.64453125,-83.49609375,-26.85546875,-16.11328125,-0.9765625
128.6484375,-76.171875,-21.484375,-16.11328125,-4.39453125
128.65234375,-66.40625,-15.625,-25.390625,6.8359375
128.65625,-63.96484375,-18.5546875,-31.25,2.9296875
128.66015625,-52.734375,-14.16015625,-23.92578125,-13.18359375
128.6640625,-43.45703125,-9.765625,-22.4609375,-21.484375
128.66796875,-41.50390625,-9.27734375,-24.4140625,-8.7890625
128.671875,-27.34375,-1.953125,-15.625,7.32421875
128.67578125,-28.3203125,-3.90625,-13.671875,15.13671875
128.6796875,-33.203125,-3.41796875,-13.671875,9.765625
128.68359375,-20.01953125,-2.44140625,-23.92578125,6.8359375
128.6875,-20.99609375,-10.7421875,-31.73828125,4.8828125
128.69140625,-24.90234375,-2.44140625,-11.71875,-7.8125
128.6953125,-19.04296875,11.71875,-13.671875,-21.97265625
128.69921875,-19.04296875,18.5546875,-18.5546875,-31.25
128.703125,-18.06640625,21.97265625,-18.06640625,-12.6953125
128.70703125,-21.484375,17.08984375,-18.06640625,34.1796875
128.7109375,-20.01953125,23.4375,-20.99609375,60.546875
128.71484375,-9.27734375,25.87890625,-19.53125,63.96484375
128.71875,-26.3671875,19.53125,-10.25390625,37.59765625
128.72265625,-33.203125,22.94921875,-10.7421875,-13.18359375
128.7265625,-22.94921875,21.484375,-3.41796875,-33.69140625
128.73046875,-35.15625,19.04296875,-10.7421875,-37.109375
128.734375,-64.453125,10.7421875,-38.57421875,-62.5
128.73828125,-84.47265625,11.23046875,-24.4140625,-87.890625
128.7421875,-92.7734375,12.20703125,-14.16015625,-101.5625
128.74609375,-74.70703125,5.859375,-26.85546875,-94.23828125
128.75,-70.80078125,29.78515625,-27.34375,-89.84375
128.75390625,-73.73046875,54.19921875,-17.578125,-107.421875
128.7578125,-61.03515625,37.109375,-10.25390625,-116.2109375
128.76171875,-65.91796875,26.85546875,-11.71875,-107.91015625
128.765625,-62.01171875,26.3671875,-12.6953125,-92.28515625
128.76953125,-48.828125,33.69140625,-7.8125,-66.40625
128.7734375,-48.828125,38.0859375,-6.34765625,-71.2890625
128.77734375,-59.5703125,26.85546875,-15.13671875,-84.9609375
128.78125,-72.75390625,23.4375,-20.5078125,-76.66015625
128.78515625,-80.56640625,20.5078125,-14.16015625,-90.33203125
128.7890625,-93.26171875,24.4140625,-3.90625,-86.9140625
128.79296875,-112.3046875,60.546875,-9.27734375,-77.1484375
128.796875,-114.74609375,43.45703125,-22.4609375,-84.47265625
128.80078125,-114.2578125,17.08984375,-16.6015625,-90.33203125
128.8046875,-108.3984375,24.90234375,-10.25390625,-83.0078125
128.80859375,-83.0078125,32.71484375,-8.30078125,-68.84765625
128.8125,-83.49609375,27.83203125,-14.16015625,-71.2890625
128.81640625,-89.84375,28.3203125,-20.01953125,-68.359375
128.8203125,-96.19140625,30.76171875,-17.08984375,-41.015625
128.82421875,-105.46875,24.90234375,-16.11328125,-22.4609375
128.828125,-99.609375,27.83203125,-18.06640625,-27.34375
128.83203125,-109.86328125,31.73828125,-17.578125,-21.97265625
128.8359375,-116.2109375,22.94921875,-20.01953125,-8.7890625
128.83984375,-117.1875,15.13671875,-24.90234375,-13.671875
128.84375,-117.67578125,21.484375,-25.390625,-9.765625
128.84765625,-111.81640625,19.53125,-23.4375,-5.859375
128.8515625,-111.81640625,33.203125,-21.97265625,-20.99609375
128.85546875,-110.83984375,30.76171875,-20.01953125,-22.94921875
128.859375,-111.81640625,10.7421875,-23.92578125,-24.4140625
128.86328125,-113.76953125,14.16015625,-20.99609375,-24.90234375
128.8671875,-107.91015625,15.13671875,-16.11328125,-21.484375
128.87109375,-93.26171875,24.90234375,-10.7421875,-9.27734375
128.875,-92.7734375,24.90234375,-7.8125,-9.27734375
128.87890625,-99.12109375,26.3671875,-23.92578125,-29.296875
128.8828125,-89.35546875,56.640625,-24.90234375,-26.85546875
128.88671875,-86.9140625,40.52734375,-27.34375,-33.203125
128.890625,-81.0546875,80.078125,-27.83203125,-33.69140625
128.89453125,-77.1484375,134.765625,-24.90234375,-30.76171875
128.8984375,-68.84765625,75.1953125,-32.71484375,-47.36328125
128.90234375,-56.640625,50.29296875,-35.64453125,-62.01171875
128.90625,-64.94140625,40.52734375,-33.69140625,-84.9609375
128.91015625,-61.5234375,33.69140625,-31.73828125,-95.703125
128.9140625,-54.6875,40.52734375,-25.390625,-93.26171875
128.91796875,-57.6171875,46.38671875,-20.5078125,-82.51953125
128.921875,-56.15234375,41.9921875,-25.87890625,-82.03125
128.92578125,-58.59375,37.59765625,-22.4609375,-85.9375
128.9296875,-54.6875,42.96875,-20.01953125,-76.66015625
128.93359375,-49.8046875,46.38671875,-21.484375,-66.40625
128.9375,-49.8046875,41.50390625,-20.99609375,-53.22265625
128.94140625,-45.8984375,37.109375,-23.4375,-41.9921875
128.9453125,-34.66796875,40.52734375,-31.25,-40.52734375
128.94921875,-14.6484375,45.41015625,-35.64453125,-28.3203125
128.953125,-20.5078125,43.45703125,-34.1796875,-17.08984375
128.95703125,-34.1796875,38.57421875,-34.1796875,-27.83203125
128.9609375,-29.296875,31.73828125,-26.85546875,-36.1328125
128.96484375,-19.04296875,26.85546875,-18.06640625,-28.80859375
128.96875,-12.20703125,32.71484375,-20.99609375,-26.85546875
128.97265625,-24.90234375,35.64453125,-33.203125,-24.90234375
128.9765625,-20.5078125,30.2734375,-23.4375,-17.08984375
128.98046875,-7.32421875,35.64453125,-18.5546875,-19.04296875
128.984375,-6.8359375,36.62109375,-29.296875,-25.390625
128.98828125,-15.625,27.34375,-25.87890625,-35.64453125
128.9921875,-19.04296875,24.4140625,-17.578125,-36.1328125
128.99609375,-24.4140625,20.99609375,-17.578125,-39.55078125
129.0,-23.92578125,16.6015625,-22.4609375,-34.66796875
129.00390625,-11.71875,22.94921875,-25.390625,-23.92578125
129.0078125,-19.04296875,27.34375,-24.90234375,-28.3203125
129.01171875,-33.203125,19.04296875,-27.83203125,-34.66796875
129.015625,-36.1328125,12.20703125,-31.25,-37.109375
129.01953125,-30.2734375,7.32421875,-29.296875,-28.80859375
129.0234375,-27.34375,6.34765625,-23.4375,-21.97265625
129.02734375,-30.2734375,6.8359375,-27.34375,-29.78515625
129.03125,-26.85546875,9.765625,-32.2265625,-25.390625
129.03515625,-12.6953125,16.6015625,-27.34375,-7.32421875
129.0390625,-14.6484375,10.25390625,-31.73828125,0.0
129.04296875,-21.484375,6.8359375,-33.69140625,2.44140625
129.046875,-25.87890625,2.44140625,-29.296875,5.859375
129.05078125,-27.34375,2.9296875,-29.296875,10.25390625
129.0546875,-27.34375,8.7890625,-26.3671875,15.625
129.05859375,-20.99609375,3.90625,-24.4140625,25.390625
129.0625,-12.20703125,2.44140625,-20.01953125,27.34375
129.06640625,-20.5078125,5.859375,-15.13671875,26.85546875
129.0703125,-20.99609375,3.41796875,-21.97265625,28.3203125
129.07421875,-29.78515625,-2.9296875,-25.87890625,11.23046875
129.078125,-36.62109375,-3.41796875,-20.99609375,2.9296875
129.08203125,-33.203125,0.48828125,-28.3203125,5.859375
129.0859375,-32.71484375,-1.953125,-29.296875,7.8125
129.08984375,-29.296875,-7.32421875,-25.87890625,14.6484375
129.09375,-19.04296875,-1.953125,-17.08984375,19.53125
129.09765625,-22.4609375,-7.8125,-16.6015625,14.16015625
129.1015625,-19.04296875,-7.8125,-20.99609375,1.46484375
129.10546875,-19.04296875,6.8359375,-21.484375,0.0
129.109375,-34.66796875,-2.9296875,-27.83203125,-12.6953125
129.11328125,-41.50390625,-14.16015625,-26.85546875,-17.578125
129.1171875,-31.25,-10.25390625,-25.87890625,-2.44140625
129.12109375,-31.25,-16.11328125,-25.390625,-0.48828125
129.125,-48.828125,-21.484375,-28.3203125,-12.6953125
129.12890625,-43.45703125,-16.6015625,-29.78515625,-15.625
129.1328125,-44.921875,-11.71875,-23.92578125,-11.71875
129.13671875,-37.109375,-8.30078125,-21.484375,-4.8828125
129.140625,-25.390625,-13.671875,-22.94921875,-1.953125
129.14453125,-30.76171875,-12.6953125,-22.4609375,1.46484375
129.1484375,-33.203125,-8.7890625,-20.01953125,11.71875
129.15234375,-25.87890625,-13.18359375,-18.5546875,15.625
129.15625,-20.5078125,-14.16015625,-20.99609375,1.953125
129.16015625,-18.5546875,-7.32421875,-28.3203125,-2.9296875
129.1640625,-23.92578125,-9.27734375,-30.2734375,2.44140625
129.16796875,-26.85546875,-9.27734375,-31.73828125,-2.44140625
129.171875,-24.4140625,-11.71875,-37.59765625,-19.53125
129.17578125,-2.9296875,-8.30078125,-27.83203125,-11.23046875
129.1796875,-4.8828125,-0.48828125,-14.16015625,-2.9296875
129.18359375,-37.109375,-13.671875,-27.83203125,-10.25390625
129.1875,-36.1328125,-20.99609375,-28.80859375,-4.39453125
129.19140625,-32.2265625,-19.53125,-21.97265625,-15.625
129.1953125,-19.04296875,-13.671875,-26.85546875,-18.06640625
129.19921875,-14.6484375,-11.23046875,-26.85546875,-15.13671875
129.203125,-22.94921875,-9.27734375,-19.04296875,-20.01953125
129.20703125,-12.20703125,-7.32421875,-23.4375,-10.25390625
129.2109375,-9.27734375,-12.6953125,-26.85546875,-13.671875
129.21484375,-12.6953125,-11.71875,-26.3671875,-27.83203125
129.21875,-2.44140625,-5.37109375,-22.4609375,-22.4609375
129.22265625,-2.9296875,-4.8828125,-18.5546875,-2.9296875
129.2265625,-10.7421875,-4.8828125,-20.99609375,4.8828125
129.23046875,-6.34765625,-14.6484375,-16.6015625,0.0
129.234375,-7.32421875,-16.11328125,-20.01953125,-7.8125
129.23828125,-11.71875,-13.671875,-24.4140625,-11.71875
129.2421875,-12.6953125,-16.11328125,-23.92578125,-14.6484375
129.24609375,-12.6953125,-18.06640625,-25.87890625,-7.8125
129.25,-21.97265625,-20.5078125,-24.90234375,-23.92578125
129.25390625,-23.92578125,-18.5546875,-23.92578125,-40.52734375
129.2578125,-15.13671875,-20.01953125,-19.53125,-20.99609375
129.26171875,-20.5078125,-25.390625,-25.87890625,-26.3671875
129.265625,-28.3203125,-24.90234375,-38.57421875,-36.1328125
129.26953125,-36.1328125,-22.4609375,-33.203125,-26.85546875
129.2734375,-42.96875,-27.34375,-25.390625,-29.78515625
129.27734375,-36.62109375,-26.3671875,-29.78515625,-31.25
129.28125,-29.296875,-23.92578125,-27.34375,-23.92578125
129.28515625,-27.34375,-23.4375,-19.53125,-21.484375
129.2890625,-20.01953125,-16.6015625,-22.94921875,-22.94921875
129.29296875,-17.578125,-21.97265625,-30.76171875,-25.390625
129.296875,-17.08984375,-23.92578125,-30.2734375,-31.25
129.30078125,-8.30078125,-16.11328125,-20.01953125,-31.25
129.3046875,-5.37109375,-15.625,-15.13671875,-36.1328125
129.30859375,-9.27734375,-19.04296875,-20.5078125,-39.55078125
129.3125,-11.71875,-17.08984375,-20.01953125,-33.203125
129.31640625,-13.671875,-11.23046875,-18.06640625,-29.78515625
129.3203125,-9.27734375,-11.23046875,-20.01953125,-26.3671875
129.32421875,-12.20703125,-18.5546875,-18.5546875,-31.25
129.328125,-20.01953125,-17.578125,-14.16015625,-40.52734375
129.33203125,-12.20703125,-16.6015625,-12.20703125,-32.71484375
129.3359375,-14.16015625,-19.53125,-17.578125,-20.99609375
129.33984375,-19.53125,-15.13671875,-15.13671875,-15.13671875
129.34375,-17.08984375,-12.6953125,-11.71875,-11.71875
129.34765625,-24.90234375,-15.625,-16.11328125,7.8125
129.3515625,-29.78515625,-17.08984375,-13.671875,12.20703125
129.35546875,-22.4609375,-18.06640625,-9.27734375,6.34765625
129.359375,-24.90234375,-18.5546875,-10.25390625,-2.44140625
129.36328125,-35.15625,-28.80859375,-16.6015625,-17.578125
129.3671875,-21.484375,-26.85546875,-21.97265625,-16.6015625
129.37109375,-20.01953125,-15.625,-24.4140625,-25.87890625
129.375,-38.0859375,-16.11328125,-26.3671875,-44.921875
129.37890625,-29.78515625,-17.08984375,-26.3671875,-40.52734375
129.3828125,-28.80859375,-18.06640625,-22.94921875,-31.73828125
129.38671875,-42.48046875,-21.97265625,-20.5078125,-29.296875
129.390625,-38.0859375,-13.671875,-18.06640625,-28.80859375
129.39453125,-40.0390625,-12.6953125,-17.578125,-19.04296875
129.3984375,-41.9921875,-17.08984375,-19.04296875,-16.11328125
129.40234375,-32.2265625,-17.578125,-17.578125,-21.97265625
129.40625,-46.38671875,-26.3671875,-24.4140625,-28.80859375
129.41015625,-55.17578125,-26.3671875,-29.296875,-34.66796875
129.4140625,-46.875,-18.5546875,-22.4609375,-17.578125
129.41796875,-45.41015625,-13.671875,-15.625,1.953125
129.421875,-49.8046875,-10.25390625,-15.13671875,9.765625
129.42578125,-44.921875,-8.30078125,-19.53125,5.37109375
129.4296875,-45.41015625,-7.32421875,-15.13671875,3.41796875
129.43359375,-54.6875,-12.6953125,-12.6953125,-10.25390625
129.4375,-56.15234375,-18.5546875,-21.484375,-27.34375
129.44140625,-50.78125,-29.296875,-27.34375,-29.78515625
129.4453125,-40.0390625,-25.87890625,-37.109375,-32.71484375
129.44921875,-20.99609375,-14.16015625,-36.1328125,-30.76171875
129.453125,-17.08984375,-13.18359375,-17.578125,-15.13671875
129.45703125,-21.97265625,-10.25390625,-26.3671875,-17.08984375
129.4609375,-20.99609375,-10.7421875,-34.1796875,-20.01953125
129.46484375,-28.3203125,-16.6015625,-22.94921875,-23.4375
129.46875,-44.921875,-19.53125,-26.3671875,-24.90234375
129.47265625,-54.6875,-18.5546875,-20.99609375,-16.11328125
129.4765625,-61.03515625,-15.13671875,-10.25390625,-20.01953125
129.48046875,-67.87109375,-18.06640625,-10.7421875,-30.2734375
129.484375,-57.12890625,-19.04296875,-9.765625,-32.2265625
129.48828125,-58.10546875,-18.5546875,-12.6953125,-28.3203125
129.4921875,-55.17578125,-18.5546875,-12.20703125,-18.5546875
129.49609375,-45.8984375,-17.08984375,-10.25390625,-14.6484375
129.5,-49.8046875,-12.6953125,-17.578125,-11.71875
129.50390625,-62.01171875,-24.4140625,-34.66796875,-14.16015625
129.5078125,-65.91796875,-26.85546875,-28.80859375,-21.484375
129.51171875,-62.98828125,-24.4140625,-22.94921875,-20.99609375
129.515625,-69.3359375,-33.203125,-32.2265625,-18.06640625
129.51953125,-66.40625,-23.92578125,-30.76171875,-11.23046875
129.5234375,-62.01171875,-20.5078125,-30.76171875,-2.44140625
129.52734375,-64.453125,-21.97265625,-26.3671875,-0.9765625
129.53125,-60.546875,-22.4609375,-20.01953125,-20.99609375
129.53515625,-54.6875,-28.3203125,-13.18359375,-39.0625
129.5390625,-60.546875,-24.4140625,-12.6953125,-41.50390625
129.54296875,-59.5703125,-19.53125,-17.578125,-45.41015625
129.546875,-52.734375,-18.5546875,-22.94921875,-54.6875
129.55078125,-50.78125,-18.5546875,-24.4140625,-45.41015625
129.5546875,-53.7109375,-18.06640625,-19.53125,-44.921875
129.55859375,-53.22265625,-21.484375,-16.6015625,-41.9921875
129.5625,-51.7578125,-30.2734375,-16.11328125,-42.96875
129.56640625,-52.24609375,-24.4140625,-19.04296875,-61.03515625
129.5703125,-43.45703125,-20.01953125,-19.04296875,-53.22265625
129.57421875,-43.45703125,-20.5078125,-19.53125,-43.9453125
129.578125,-41.9921875,-19.04296875,-19.53125,-53.22265625
129.58203125,-33.203125,-16.6015625,-8.30078125,-42.96875
129.5859375,-39.55078125,-19.04296875,-13.18359375,-46.875
129.58984375,-46.875,-24.90234375,-23.4375,-58.59375
129.59375,-41.50390625,-22.4609375,-17.08984375,-55.17578125
129.59765625,-30.2734375,-27.34375,-20.01953125,-65.4296875
129.6015625,-31.73828125,-26.3671875,-24.4140625,-59.08203125
129.60546875,-37.59765625,-19.53125,-20.01953125,-42.96875
129.609375,-26.85546875,-24.90234375,-18.5546875,-45.8984375
129.61328125,-24.4140625,-32.2265625,-25.390625,-58.59375
129.6171875,3.41796875,-27.83203125,-26.3671875,-42.48046875
129.62109375,75.68359375,-28.80859375,-20.5078125,-33.69140625
129.625,116.69921875,-34.66796875,-20.5078125,-39.0625
129.62890625,125.0,-27.34375,-21.484375,-22.94921875
129.6328125,127.44140625,-26.3671875,-21.97265625,-19.04296875
129.63671875,112.3046875,-26.85546875,-26.85546875,-17.578125
129.640625,96.19140625,-28.80859375,-24.4140625,-30.2734375
129.64453125,101.5625,-31.25,-23.4375,-54.19921875
129.6484375,106.4453125,-25.390625,-25.390625,-53.7109375
129.65234375,89.84375,-21.97265625,-20.5078125,-60.546875
129.65625,85.44921875,-22.4609375,-28.3203125,-65.4296875
129.66015625,83.49609375,-21.97265625,-36.62109375,-44.43359375
129.6640625,74.70703125,-24.90234375,-31.25,-33.69140625
129.66796875,72.265625,-29.296875,-28.3203125,-24.4140625
129.671875,68.84765625,-24.90234375,-23.4375,6.34765625
129.67578125,59.5703125,-26.3671875,-16.11328125,30.2734375
129.6796875,48.828125,-28.80859375,-16.11328125,36.62109375
129.68359375,49.8046875,-26.3671875,-17.08984375,56.640625
129.6875,47.36328125,-29.78515625,-21.484375,73.2421875
129.69140625,42.48046875,-30.76171875,-20.99609375,73.73046875
129.6953125,37.109375,-26.3671875,-16.11328125,87.40234375
129.69921875,31.73828125,-21.97265625,-20.01953125,105.46875
129.703125,34.1796875,-23.92578125,-23.92578125,99.12109375
129.70703125,43.45703125,-26.85546875,-16.6015625,88.8671875
129.7109375,57.6171875,-25.87890625,-19.04296875,101.5625
129.71484375,56.640625,-24.4140625,-23.92578125,110.3515625
129.71875,51.26953125,-24.90234375,-24.4140625,104.00390625
129.72265625,43.9453125,-20.01953125,-20.99609375,113.28125
129.7265625,30.2734375,-21.97265625,-21.97265625,117.67578125
129.73046875,34.66796875,-24.90234375,-25.87890625,127.44140625
129.734375,27.83203125,-33.203125,-24.90234375,132.8125
129.73828125,13.671875,-34.66796875,-25.87890625,129.8828125
129.7421875,11.71875,-20.01953125,-25.390625,127.9296875
129.74609375,4.8828125,-23.4375,-18.5546875,118.1640625
129.75,-3.90625,-30.2734375,-20.5078125,119.62890625
129.75390625,5.37109375,-25.390625,-17.08984375,123.53515625
129.7578125,13.671875,-20.99609375,-13.671875,99.609375
129.76171875,6.8359375,-18.5546875,-21.484375,85.9375
129.765625,8.30078125,-14.16015625,-9.27734375,88.8671875
129.76953125,11.23046875,-12.20703125,15.625,94.23828125
129.7734375,9.765625,-16.11328125,24.4140625,102.05078125
129.77734375,18.06640625,-21.97265625,24.4140625,108.3984375
129.78125,11.71875,-17.578125,16.11328125,98.6328125
129.78515625,-1.953125,-19.53125,9.27734375,92.7734375
129.7890625,2.44140625,-12.6953125,19.53125,108.3984375
129.79296875,-14.6484375,-13.18359375,17.08984375,94.23828125
129.796875,-29.296875,-28.80859375,7.8125,71.2890625
129.80078125,-22.4609375,-28.3203125,6.8359375,76.171875
129.8046875,-21.484375,-28.3203125,1.953125,68.84765625
129.80859375,-22.4609375,-26.3671875,-4.8828125,67.3828125
129.8125,-22.94921875,-23.92578125,-5.859375,73.73046875
129.81640625,-24.4140625,-28.80859375,-3.90625,61.03515625
129.8203125,-27.83203125,-29.78515625,-8.7890625,55.6640625
129.82421875,-33.203125,-32.71484375,-13.18359375,60.05859375
129.828125,-28.3203125,-35.64453125,-16.11328125,64.94140625
129.83203125,-23.92578125,-34.1796875,-12.20703125,66.89453125
129.8359375,-20.99609375,-31.73828125,-8.7890625,69.82421875
129.83984375,-26.3671875,-31.25,-12.20703125,68.84765625
129.84375,-28.3203125,-33.203125,-15.625,56.640625
129.84765625,-20.99609375,-29.296875,-17.08984375,54.6875
129.8515625,-23.92578125,-30.76171875,-21.97265625,58.10546875
129.85546875,-20.99609375,-34.1796875,-16.11328125,62.98828125
129.859375,-20.01953125,-36.1328125,-14.16015625,62.01171875
129.86328125,-20.5078125,-37.59765625,-16.11328125,62.01171875
129.8671875,-3.90625,-19.04296875,-6.34765625,80.078125
129.87109375,-5.859375,-25.390625,-13.18359375,82.51953125
129.875,-10.25390625,-40.52734375,-23.4375,49.8046875
129.87890625,0.48828125,-31.73828125,-19.04296875,41.9921875
129.8828125,-2.9296875,-29.296875,-18.5546875,50.78125
129.88671875,-8.30078125,-31.73828125,-20.01953125,34.1796875
129.890625,-5.37109375,-25.87890625,-16.6015625,32.2265625
129.89453125,-0.9765625,-24.90234375,-16.11328125,30.2734375
129.8984375,-4.39453125,-27.34375,-16.11328125,29.296875
129.90234375,-3.90625,-30.2734375,-17.578125,40.52734375
129.90625,-7.8125,-35.15625,-16.6015625,47.36328125
129.91015625,-7.32421875,-32.71484375,-14.16015625,57.12890625
129.9140625,-9.27734375,-31.25,-16.11328125,73.73046875
129.91796875,-7.8125,-34.66796875,-19.04296875,65.91796875
129.921875,-1.953125,-31.73828125,-22.94921875,57.12890625
129.92578125,-4.39453125,-26.85546875,-19.04296875,69.82421875
129.9296875,-4.39453125,-30.76171875,-15.625,76.171875
