Timestamp,TP9,AF7,AF8,TP10
120.0078125,-38.57421875,-30.76171875,-20.5078125,-30.2734375
120.01171875,-37.59765625,-27.83203125,-16.6015625,-17.578125
120.015625,-37.59765625,-27.34375,-12.6953125,-16.6015625
120.01953125,-49.31640625,-28.80859375,-20.01953125,-20.99609375
120.0234375,-48.33984375,-32.2265625,-20.5078125,-21.484375
120.02734375,-40.0390625,-33.203125,-15.625,-15.13671875
120.03125,-32.2265625,-29.78515625,-23.92578125,-14.16015625
120.03515625,-28.80859375,-30.76171875,-29.296875,-30.76171875
120.0390625,-39.0625,-34.1796875,-21.484375,-30.76171875
120.04296875,-38.57421875,-31.73828125,-17.578125,-9.765625
120.046875,-40.0390625,-33.69140625,-21.97265625,-2.9296875
120.05078125,-25.87890625,-35.15625,-21.484375,-15.13671875
120.0546875,-29.78515625,-39.55078125,-22.4609375,-25.87890625
120.05859375,-49.8046875,-36.62109375,-25.390625,-20.5078125
120.0625,-37.59765625,-32.71484375,-23.4375,-14.6484375
120.06640625,-24.4140625,-34.66796875,-24.90234375,-16.6015625
120.0703125,-18.06640625,-31.25,-20.5078125,-19.04296875
120.07421875,-14.16015625,-25.390625,-15.625,0.48828125
120.078125,-23.4375,-24.4140625,-12.6953125,7.32421875
120.08203125,-23.4375,-27.34375,-11.23046875,-19.04296875
120.0859375,-20.5078125,-29.78515625,-14.16015625,-23.4375
120.08984375,-25.87890625,-33.69140625,-19.53125,-15.13671875
120.09375,-19.53125,-31.25,-19.53125,-2.9296875
120.09765625,-19.04296875,-25.390625,-19.53125,-20.99609375
120.1015625,-39.0625,-27.34375,-20.01953125,-41.015625
120.10546875,-46.38671875,-31.73828125,-17.08984375,-27.34375
120.109375,-27.83203125,-29.78515625,-14.16015625,-18.06640625
120.11328125,-4.39453125,-23.92578125,-11.71875,-4.39453125
120.1171875,-16.11328125,-24.4140625,-14.16015625,-12.6953125
120.12109375,-28.80859375,-28.3203125,-15.625,-20.5078125
120.125,-15.13671875,-25.87890625,-15.13671875,-2.44140625
120.12890625,-7.8125,-18.5546875,-12.20703125,0.9765625
120.1328125,-11.71875,-20.5078125,-12.20703125,-0.48828125
120.13671875,-11.71875,-24.90234375,-16.6015625,-2.44140625
120.140625,-18.5546875,-26.3671875,-17.08984375,-3.90625
120.14453125,-18.06640625,-27.34375,-17.578125,7.32421875
120.1484375,-7.32421875,-26.3671875,-15.13671875,4.8828125
120.15234375,-22.4609375,-21.97265625,-13.671875,-11.71875
120.15625,-31.25,-18.06640625,-14.16015625,-16.6015625
120.16015625,-22.4609375,-20.01953125,-11.71875,-17.08984375
120.1640625,-18.06640625,-27.34375,-17.578125,-15.13671875
120.16796875,-24.4140625,-29.78515625,-19.04296875,-29.296875
120.171875,-38.57421875,-34.66796875,-12.6953125,-34.1796875
120.17578125,-33.69140625,-36.62109375,-10.7421875,-18.5546875
120.1796875,-13.18359375,-29.296875,-11.71875,-8.30078125
120.18359375,-19.53125,-30.76171875,-15.625,-2.9296875
120.1875,-21.484375,-31.25,-15.625,-8.30078125
120.19140625,-19.53125,-24.90234375,-13.18359375,-6.8359375
120.1953125,-28.3203125,-20.99609375,-14.6484375,-9.765625
120.19921875,-20.5078125,-24.4140625,-11.71875,-9.765625
120.203125,-19.53125,-28.80859375,-12.6953125,-12.6953125
120.20703125,-18.06640625,-30.76171875,-11.71875,-19.04296875
120.2109375,-14.6484375,-30.2734375,-8.7890625,-4.39453125
120.21484375,-12.20703125,-26.3671875,-11.71875,-1.953125
120.21875,-16.6015625,-30.76171875,-14.16015625,-18.06640625
120.22265625,-12.6953125,-28.3203125,-19.04296875,-11.71875
120.2265625,-14.6484375,-24.90234375,-15.625,4.8828125
120.23046875,-21.484375,-26.3671875,-16.6015625,-6.34765625
120.234375,-24.90234375,-26.3671875,-20.99609375,-23.92578125
120.23828125,-34.1796875,-29.296875,-17.08984375,-21.484375
120.2421875,-9.765625,-23.92578125,-19.53125,-29.296875
120.24609375,5.37109375,-19.53125,-25.87890625,-28.3203125
120.25,-21.484375,-21.484375,-20.99609375,-26.3671875
120.25390625,-24.90234375,-20.01953125,-9.765625,-21.484375
120.2578125,-13.671875,-21.97265625,-10.25390625,-1.46484375
120.26171875,-8.7890625,-25.87890625,-14.16015625,0.48828125
120.265625,-17.08984375,-25.87890625,-22.4609375,-10.7421875
120.26953125,-33.69140625,-29.78515625,-20.99609375,-20.99609375
120.2734375,-34.66796875,-32.2265625,-12.6953125,-26.3671875
120.27734375,-34.66796875,-32.2265625,-24.90234375,-22.94921875
120.28125,-35.64453125,-25.390625,-34.66796875,-25.390625
120.28515625,-25.87890625,-16.11328125,-20.99609375,-31.25
120.2890625,-23.4375,-15.13671875,-16.11328125,-28.80859375
120.29296875,-27.34375,-23.4375,-27.34375,-24.90234375
120.296875,-14.6484375,-22.94921875,-23.92578125,-6.8359375
120.30078125,-12.20703125,-18.06640625,-12.20703125,-6.34765625
120.3046875,-27.34375,-20.01953125,-16.11328125,-31.25
120.30859375,-19.04296875,-16.6015625,-15.625,-24.90234375
120.3125,-6.34765625,-17.08984375,-9.27734375,-10.25390625
120.31640625,-0.9765625,-20.5078125,-13.671875,-20.01953125
120.3203125,-11.71875,-19.53125,-18.5546875,-33.203125
120.32421875,-25.87890625,-19.04296875,-17.578125,-17.08984375
120.328125,-22.94921875,-20.99609375,-20.01953125,-12.20703125
120.33203125,-21.97265625,-25.390625,-20.01953125,-39.0625
120.3359375,-26.3671875,-27.83203125,-14.16015625,-35.15625
120.33984375,-25.390625,-27.83203125,-13.671875,-15.625
120.34375,-25.87890625,-23.4375,-16.11328125,-19.53125
120.34765625,-17.578125,-18.5546875,-16.11328125,-9.27734375
120.3515625,-16.11328125,-22.94921875,-17.578125,-17.08984375
120.35546875,-22.94921875,-22.94921875,-16.6015625,-36.1328125
120.359375,-24.90234375,-24.90234375,-9.27734375,-29.78515625
120.36328125,-23.4375,-26.3671875,-8.7890625,-21.97265625
120.3671875,-27.34375,-24.4140625,-15.13671875,-23.4375
120.37109375,-32.2265625,-32.2265625,-23.92578125,-28.80859375
120.375,-27.83203125,-33.69140625,-19.53125,-0.48828125
120.37890625,-23.4375,-27.83203125,-19.04296875,11.71875
120.3828125,-18.06640625,-28.80859375,-29.78515625,-29.296875
120.38671875,-17.578125,-33.203125,-25.87890625,-22.4609375
120.390625,-25.87890625,-35.15625,-14.6484375,-3.41796875
120.39453125,-21.484375,-30.76171875,-8.30078125,-6.8359375
120.3984375,-25.87890625,-33.203125,-9.765625,-5.37109375
120.40234375,-33.69140625,-35.15625,-13.18359375,-22.94921875
120.40625,-31.73828125,-23.92578125,-13.671875,-23.92578125
120.41015625,-19.53125,-23.4375,-16.6015625,-1.953125
120.4140625,-20.99609375,-28.80859375,-21.484375,-10.25390625
120.41796875,-28.3203125,-29.78515625,-20.01953125,-23.4375
120.421875,-29.78515625,-31.25,-17.08984375,-26.85546875
120.42578125,-41.50390625,-29.78515625,-19.04296875,-26.85546875
120.4296875,-30.2734375,-21.97265625,-21.97265625,-22.94921875
120.43359375,-16.6015625,-23.92578125,-23.92578125,-32.2265625
120.4375,-28.80859375,-38.57421875,-22.94921875,-36.62109375
120.44140625,-35.15625,-39.0625,-19.53125,-20.5078125
120.4453125,-22.94921875,-30.76171875,-15.13671875,-2.44140625
120.44921875,-27.34375,-30.76171875,-20.01953125,-10.25390625
120.453125,-41.50390625,-27.34375,-23.4375,-24.90234375
120.45703125,-24.4140625,-19.04296875,-18.06640625,-4.39453125
120.4609375,-4.8828125,-21.484375,-16.11328125,19.53125
120.46484375,-15.13671875,-28.3203125,-19.53125,10.7421875
120.46875,-20.01953125,-28.80859375,-18.06640625,-12.6953125
120.47265625,-13.671875,-26.85546875,-20.01953125,-13.671875
120.4765625,-26.3671875,-29.78515625,-20.99609375,7.32421875
120.48046875,-26.3671875,-32.2265625,-15.625,2.44140625
120.484375,-23.92578125,-30.76171875,-11.71875,-15.13671875
120.48828125,-39.0625,-28.3203125,-14.16015625,-27.83203125
120.4921875,-38.0859375,-33.69140625,-19.04296875,-19.53125
120.49609375,-35.15625,-37.59765625,-12.6953125,8.30078125
120.5,-38.57421875,-32.71484375,-8.30078125,-2.44140625
120.50390625,-40.0390625,-34.66796875,-15.13671875,-21.97265625
120.5078125,-42.48046875,-39.55078125,-24.4140625,-21.97265625
120.51171875,-40.52734375,-34.1796875,-28.3203125,-20.5078125
120.515625,-27.34375,-31.73828125,-23.92578125,-15.625
120.51953125,-18.5546875,-30.76171875,-17.578125,-27.34375
120.5234375,-28.80859375,-29.296875,-13.18359375,-34.1796875
120.52734375,-27.34375,-33.69140625,-3.90625,-19.53125
120.53125,-29.296875,-35.64453125,-1.46484375,-15.13671875
120.53515625,-41.015625,-43.9453125,-0.48828125,-16.11328125
120.5390625,-17.578125,-46.38671875,3.41796875,1.46484375
120.54296875,-12.6953125,-31.25,-8.30078125,-2.9296875
120.546875,-26.3671875,-19.04296875,-18.5546875,-20.01953125
120.55078125,-24.90234375,-16.11328125,-20.99609375,-26.3671875
120.5546875,-25.390625,-11.71875,-17.578125,-29.296875
120.55859375,-30.76171875,-6.8359375,-18.06640625,-29.296875
120.5625,-31.25,-0.48828125,-24.90234375,-46.38671875
120.56640625,-22.94921875,5.37109375,-27.83203125,-60.05859375
120.5703125,-17.578125,3.41796875,-30.2734375,-60.05859375
120.57421875,-11.23046875,12.6953125,-27.34375,-51.26953125
120.578125,-6.8359375,27.34375,-28.80859375,-51.26953125
120.58203125,-11.71875,30.2734375,-35.15625,-67.3828125
120.5859375,-6.34765625,31.73828125,-35.64453125,-79.1015625
120.58984375,4.8828125,40.52734375,-34.66796875,-75.68359375
120.59375,5.859375,48.828125,-21.484375,-52.734375
120.59765625,12.20703125,50.78125,-18.06640625,-41.50390625
120.6015625,11.23046875,51.26953125,-25.87890625,-60.05859375
120.60546875,12.20703125,54.6875,-25.87890625,-53.7109375
120.609375,20.99609375,57.12890625,-30.76171875,-53.7109375
120.61328125,22.4609375,60.05859375,-34.1796875,-57.12890625
120.6171875,19.04296875,60.546875,-29.78515625,-56.15234375
120.62109375,23.92578125,70.80078125,-29.78515625,-60.05859375
120.625,35.15625,80.078125,-36.62109375,-52.24609375
120.62890625,35.64453125,82.03125,-36.1328125,-53.22265625
120.6328125,36.1328125,79.1015625,-41.9921875,-57.6171875
120.63671875,32.2265625,73.2421875,-43.45703125,-51.26953125
120.640625,30.76171875,71.2890625,-34.1796875,-44.921875
120.64453125,40.0390625,71.2890625,-31.25,-33.69140625
120.6484375,39.0625,70.80078125,-35.15625,-33.203125
120.65234375,35.64453125,66.89453125,-40.0390625,-54.19921875
120.65625,34.66796875,56.640625,-42.96875,-57.12890625
120.66015625,36.1328125,51.26953125,-37.109375,-31.25
120.6640625,32.71484375,59.08203125,-35.15625,-17.08984375
120.66796875,21.484375,52.24609375,-27.34375,-32.71484375
120.671875,11.23046875,34.1796875,-25.390625,-27.34375
120.67578125,12.20703125,33.69140625,-32.2265625,-26.3671875
120.6796875,20.5078125,32.71484375,-29.296875,-27.34375
120.68359375,29.296875,21.97265625,-23.92578125,-11.23046875
120.6875,17.08984375,12.6953125,-22.94921875,-28.3203125
120.69140625,8.30078125,12.6953125,-28.3203125,-20.5078125
120.6953125,4.8828125,8.30078125,-32.71484375,-15.625
120.69921875,-2.44140625,-4.8828125,-31.25,-38.57421875
120.703125,3.41796875,-5.859375,-24.90234375,-29.296875
120.70703125,6.8359375,1.46484375,-18.5546875,-3.90625
120.7109375,17.578125,-5.859375,-9.765625,23.92578125
120.71484375,13.18359375,-12.20703125,-8.7890625,15.13671875
120.71875,-26.85546875,-4.8828125,-30.76171875,-25.390625
120.72265625,-35.64453125,-6.8359375,-38.0859375,-20.5078125
120.7265625,-11.23046875,-6.34765625,-15.13671875,17.08984375
120.73046875,-11.71875,-11.71875,-19.53125,5.37109375
120.734375,-21.97265625,-16.6015625,-38.57421875,-25.87890625
120.73828125,-35.15625,-15.13671875,-35.15625,-29.296875
120.7421875,-46.38671875,-14.6484375,-29.296875,-16.11328125
120.74609375,-24.90234375,-30.76171875,-21.484375,-0.48828125
120.75,-13.18359375,-38.0859375,-21.484375,-9.765625
120.75390625,-18.5546875,-19.53125,-19.04296875,-13.671875
120.7578125,-30.76171875,-20.5078125,-12.6953125,0.9765625
120.76171875,-38.57421875,-39.0625,-15.625,7.32421875
120.765625,-26.85546875,-39.55078125,-17.08984375,5.859375
120.76953125,-28.80859375,-27.83203125,-17.578125,-4.39453125
120.7734375,-36.1328125,-26.3671875,-19.04296875,-7.32421875
120.77734375,-30.2734375,-25.87890625,-25.390625,-9.27734375
120.78125,-28.80859375,-30.2734375,-31.73828125,-14.6484375
120.78515625,-35.15625,-41.015625,-26.85546875,-23.92578125
120.7890625,-43.9453125,-43.45703125,-30.2734375,-19.04296875
120.79296875,-29.296875,-41.50390625,-26.85546875,10.7421875
120.796875,-11.23046875,-41.9921875,-15.625,17.578125
120.80078125,-21.484375,-28.80859375,-18.06640625,-11.23046875
120.8046875,-43.9453125,-18.5546875,-21.484375,-25.87890625
120.80859375,-40.52734375,-41.015625,-8.7890625,-0.48828125
120.8125,-24.90234375,-49.31640625,-3.90625,24.4140625
120.81640625,-29.78515625,-26.3671875,-14.16015625,0.9765625
120.8203125,-37.109375,-24.90234375,-18.06640625,-19.04296875
120.82421875,-33.203125,-27.83203125,-21.484375,-4.39453125
120.828125,-36.62109375,-34.66796875,-27.34375,9.27734375
120.83203125,-40.52734375,-43.45703125,-28.3203125,11.23046875
120.8359375,-39.55078125,-47.36328125,-28.3203125,-11.23046875
120.83984375,-36.1328125,-45.41015625,-16.6015625,-6.8359375
120.84375,-32.2265625,-37.109375,-6.8359375,13.18359375
120.84765625,-32.2265625,-34.66796875,-11.71875,2.44140625
120.8515625,-36.1328125,-39.0625,-20.01953125,-12.6953125
120.85546875,-35.15625,-42.48046875,-24.4140625,-19.04296875
120.859375,-36.62109375,-40.0390625,-21.97265625,-6.34765625
120.86328125,-51.26953125,-36.1328125,-22.94921875,-7.8125
120.8671875,-47.36328125,-40.52734375,-18.06640625,-9.27734375
120.87109375,-34.1796875,-50.78125,-14.16015625,-11.71875
120.875,-39.55078125,-38.0859375,-15.625,-2.44140625
120.87890625,-32.71484375,-34.1796875,-12.20703125,17.08984375
120.8828125,-37.59765625,-43.9453125,-14.6484375,-8.7890625
120.88671875,-52.734375,-43.9453125,-23.4375,-16.11328125
120.890625,-55.17578125,-45.8984375,-24.90234375,-7.32421875
120.89453125,-49.31640625,-45.8984375,-19.04296875,-3.90625
120.8984375,-41.50390625,-45.8984375,-16.6015625,-4.8828125
120.90234375,-49.31640625,-49.31640625,-19.04296875,-23.4375
120.90625,-50.78125,-46.38671875,-17.578125,-20.01953125
120.91015625,-41.50390625,-34.66796875,-13.671875,-13.18359375
120.9140625,-39.55078125,-28.80859375,-15.625,-21.97265625
120.91796875,-56.640625,-35.15625,-25.390625,-42.48046875
120.921875,-66.40625,-41.9921875,-24.4140625,-58.10546875
120.92578125,-67.87109375,-39.0625,-16.6015625,-58.59375
120.9296875,-91.796875,-39.0625,-21.484375,-69.3359375
120.93359375,-108.3984375,-40.0390625,-19.53125,-91.30859375
120.9375,-119.140625,-43.45703125,-16.6015625,-104.4921875
120.94140625,-121.09375,-45.41015625,-15.625,-83.0078125
120.9453125,-130.37109375,-43.9453125,-11.71875,-83.0078125
120.94921875,-163.0859375,-41.50390625,-21.97265625,-134.765625
120.953125,-175.78125,-38.0859375,-31.73828125,-178.22265625
120.95703125,-196.2890625,-36.1328125,-21.484375,-198.73046875
120.9609375,-222.16796875,-44.921875,-17.578125,-208.49609375
120.96484375,-229.00390625,-51.26953125,-20.99609375,-228.515625
120.96875,-254.8828125,-47.8515625,-13.18359375,-255.37109375
120.97265625,-276.85546875,-50.78125,-14.16015625,-273.4375
120.9765625,-290.52734375,-51.7578125,-22.4609375,-285.64453125
120.98046875,-296.38671875,-54.6875,-24.4140625,-292.96875
120.984375,-297.8515625,-55.6640625,-18.06640625,-288.57421875
120.98828125,-305.17578125,-47.8515625,-12.6953125,-301.26953125
120.9921875,-303.7109375,-55.6640625,-20.01953125,-299.8046875
120.99609375,-300.78125,-62.01171875,-20.99609375,-277.34375
121.0,-288.0859375,-58.59375,-17.08984375,-294.921875
121.00390625,-278.80859375,-55.17578125,-11.23046875,-294.921875
121.0078125,-275.390625,-52.734375,-11.23046875,-268.5546875
121.01171875,-258.7890625,-53.22265625,-14.6484375,-238.76953125
121.015625,-253.41796875,-57.12890625,-7.32421875,-229.98046875
121.01953125,-249.51171875,-54.6875,-10.25390625,-239.74609375
121.0234375,-233.88671875,-57.6171875,-22.94921875,-225.5859375
121.02734375,-196.77734375,-55.6640625,-21.97265625,-192.3828125
121.03125,-171.875,-49.31640625,-19.53125,-171.875
121.03515625,-169.43359375,-51.7578125,-17.578125,-165.0390625
121.0390625,-148.92578125,-53.7109375,-15.625,-131.34765625
121.04296875,-122.0703125,-51.26953125,-15.13671875,-101.07421875
121.046875,-93.26171875,-44.921875,-12.6953125,-88.37890625
121.05078125,-75.1953125,-42.96875,-19.53125,-85.44921875
121.0546875,-66.40625,-48.33984375,-25.390625,-68.359375
121.05859375,-55.6640625,-45.8984375,-21.97265625,-42.96875
121.0625,-32.2265625,-39.0625,-20.99609375,-23.92578125
121.06640625,-18.06640625,-39.55078125,-23.4375,-14.16015625
121.0703125,-11.23046875,-35.64453125,-24.90234375,0.9765625
121.07421875,0.0,-37.109375,-29.296875,13.671875
121.078125,11.23046875,-41.9921875,-28.3203125,28.3203125
121.08203125,21.484375,-29.78515625,-22.94921875,43.9453125
121.0859375,13.18359375,-24.4140625,-24.90234375,38.0859375
121.08984375,24.4140625,-27.83203125,-23.92578125,57.6171875
121.09375,41.9921875,-21.97265625,-20.99609375,69.3359375
121.09765625,48.33984375,-19.04296875,-18.06640625,56.15234375
121.1015625,53.22265625,-20.5078125,-19.53125,46.875
121.10546875,55.17578125,-20.99609375,-18.06640625,50.29296875
121.109375,51.26953125,-20.99609375,-17.08984375,62.98828125
121.11328125,57.6171875,-16.6015625,-20.01953125,64.453125
121.1171875,62.01171875,-18.5546875,-18.06640625,58.59375
121.12109375,49.8046875,-21.97265625,-18.06640625,60.546875
121.125,40.52734375,-22.94921875,-17.08984375,75.1953125
121.12890625,48.33984375,-17.578125,-14.6484375,85.9375
121.1328125,68.84765625,-17.08984375,-13.18359375,76.66015625
121.13671875,62.5,-20.99609375,-15.625,66.89453125
121.140625,37.59765625,-16.11328125,-12.6953125,74.21875
121.14453125,42.96875,-14.6484375,-7.32421875,96.19140625
121.1484375,51.26953125,-20.01953125,-8.7890625,98.6328125
121.15234375,34.1796875,-20.5078125,-9.765625,79.58984375
121.15625,22.94921875,-16.6015625,-5.859375,80.078125
121.16015625,28.3203125,-11.23046875,-4.39453125,81.0546875
121.1640625,28.80859375,-11.23046875,-10.25390625,77.63671875
121.16796875,28.80859375,-19.53125,-16.6015625,62.01171875
121.171875,32.71484375,-17.08984375,-9.27734375,52.734375
121.17578125,31.73828125,-10.25390625,-4.39453125,73.73046875
121.1796875,39.55078125,-9.27734375,-13.18359375,81.0546875
121.18359375,43.9453125,-11.71875,-23.4375,63.4765625
121.1875,29.78515625,-14.16015625,-20.99609375,50.29296875
121.19140625,16.6015625,-14.16015625,-11.71875,58.59375
121.1953125,20.99609375,-16.6015625,-7.32421875,73.2421875
121.19921875,27.83203125,-21.484375,-7.8125,59.5703125
121.203125,22.94921875,-14.6484375,-10.7421875,45.41015625
121.20703125,19.53125,-11.23046875,-11.71875,52.24609375
121.2109375,38.57421875,-18.06640625,-10.25390625,68.359375
121.21484375,38.57421875,-14.6484375,-14.6484375,55.17578125
121.21875,31.73828125,-13.671875,-24.90234375,51.26953125
121.22265625,25.87890625,-15.13671875,-22.4609375,59.5703125
121.2265625,1.953125,-19.04296875,-13.18359375,56.15234375
121.23046875,-11.23046875,-30.76171875,-15.625,51.26953125
121.234375,-8.7890625,-28.3203125,-19.53125,41.9921875
121.23828125,-7.32421875,-13.18359375,-16.11328125,48.33984375
121.2421875,-7.8125,-14.6484375,-17.578125,49.31640625
121.24609375,2.9296875,-16.6015625,-22.4609375,38.0859375
121.25,2.44140625,-10.25390625,-20.01953125,24.4140625
121.25390625,-6.34765625,-11.71875,-18.5546875,4.39453125
121.2578125,0.0,-17.578125,-27.83203125,18.06640625
121.26171875,8.7890625,-27.83203125,-34.1796875,35.64453125
121.265625,11.23046875,-27.83203125,-22.94921875,24.4140625
121.26953125,-17.08984375,-25.87890625,-20.5078125,6.34765625
121.2734375,-21.484375,-29.78515625,-24.4140625,-1.46484375
121.27734375,-13.18359375,-33.69140625,-19.53125,16.11328125
121.28125,-39.55078125,-44.921875,-21.97265625,11.23046875
121.28515625,-46.875,-44.921875,-23.92578125,0.48828125
121.2890625,-56.15234375,-48.33984375,-26.85546875,0.48828125
121.29296875,-71.2890625,-64.94140625,-23.92578125,6.8359375
121.296875,-71.77734375,-63.4765625,-12.6953125,19.53125
121.30078125,-71.2890625,-62.5,-13.18359375,-16.11328125
121.3046875,-72.75390625,-69.3359375,-14.6484375,-28.80859375
121.30859375,-91.30859375,-75.1953125,-16.11328125,-7.8125
121.3125,-84.9609375,-79.1015625,-22.4609375,2.44140625
121.31640625,-64.453125,-69.82421875,-19.53125,1.46484375
121.3203125,-50.78125,-58.10546875,-14.16015625,-8.30078125
121.32421875,-37.109375,-58.10546875,-15.625,-6.8359375
121.328125,-42.48046875,-60.05859375,-20.01953125,-2.9296875
121.33203125,-58.10546875,-57.6171875,-17.578125,-5.859375
121.3359375,-56.640625,-58.59375,-17.578125,-7.8125
121.33984375,-45.41015625,-62.01171875,-16.11328125,-0.9765625
121.34375,-38.0859375,-58.59375,-15.13671875,13.18359375
121.34765625,-39.55078125,-50.78125,-24.90234375,2.44140625
121.3515625,-37.59765625,-42.96875,-26.85546875,-18.5546875
121.35546875,-39.55078125,-35.15625,-25.390625,-11.23046875
121.359375,-44.43359375,-36.1328125,-24.4140625,10.7421875
121.36328125,-22.94921875,-34.1796875,-15.13671875,26.85546875
121.3671875,-17.08984375,-30.76171875,-20.99609375,2.44140625
121.37109375,-39.55078125,-36.1328125,-25.390625,-4.8828125
121.375,-45.41015625,-38.57421875,-20.01953125,17.08984375
121.37890625,-25.87890625,-34.1796875,-20.5078125,24.4140625
121.3828125,-12.6953125,-29.78515625,-22.4609375,11.23046875
121.38671875,-20.99609375,-34.66796875,-26.85546875,-12.20703125
121.390625,-23.4375,-39.55078125,-32.2265625,-7.8125
121.39453125,-21.484375,-35.64453125,-19.53125,14.16015625
121.3984375,-21.484375,-21.97265625,-11.23046875,14.16015625
121.40234375,-11.23046875,-24.4140625,-19.53125,-0.48828125
121.40625,-1.46484375,-26.3671875,-22.94921875,-1.953125
121.41015625,-12.6953125,-20.01953125,-20.99609375,4.8828125
121.4140625,-19.04296875,-25.390625,-24.4140625,7.8125
121.41796875,-7.8125,-22.94921875,-31.73828125,4.8828125
121.421875,-5.859375,-24.4140625,-26.85546875,12.20703125
121.42578125,-20.99609375,-28.3203125,-15.13671875,13.18359375
121.4296875,-39.55078125,-31.73828125,-20.01953125,1.46484375
121.43359375,-52.734375,-36.1328125,-23.92578125,-18.06640625
121.4375,-57.12890625,-37.109375,-19.53125,-21.484375
121.44140625,-62.98828125,-40.0390625,-22.4609375,-24.4140625
121.4453125,-74.70703125,-48.828125,-20.99609375,-21.484375
121.44921875,-73.73046875,-55.17578125,-13.671875,-18.06640625
121.453125,-83.0078125,-58.10546875,-11.71875,-35.15625
121.45703125,-79.58984375,-55.6640625,-7.8125,-18.5546875
121.4609375,-65.91796875,-55.6640625,-7.8125,6.8359375
121.46484375,-68.84765625,-60.05859375,-16.6015625,-3.90625
121.46875,-64.453125,-55.17578125,-22.94921875,-20.99609375
121.47265625,-61.5234375,-46.875,-17.578125,-14.16015625
121.4765625,-59.5703125,-42.96875,-14.16015625,2.9296875
121.48046875,-52.24609375,-45.41015625,-15.625,7.8125
121.484375,-50.78125,-47.36328125,-8.30078125,-4.39453125
121.48828125,-52.24609375,-41.9921875,-12.20703125,6.8359375
121.4921875,-50.29296875,-40.0390625,-23.4375,14.16015625
121.49609375,-35.15625,-38.57421875,-23.92578125,-0.9765625
121.5,-36.1328125,-36.1328125,-15.625,-4.8828125
121.50390625,-44.43359375,-38.0859375,-12.20703125,-13.671875
121.5078125,-44.43359375,-33.203125,-11.71875,-0.9765625
121.51171875,-36.1328125,-31.73828125,-10.7421875,15.625
121.515625,-26.85546875,-32.71484375,-10.25390625,9.765625
121.51953125,-23.92578125,-34.66796875,-11.23046875,-3.90625
121.5234375,-28.3203125,-32.71484375,-13.18359375,-1.953125
121.52734375,-21.484375,-33.203125,-17.578125,17.08984375
121.53125,-15.13671875,-35.64453125,-20.99609375,10.25390625
121.53515625,-32.2265625,-29.296875,-18.5546875,-9.27734375
121.5390625,-40.0390625,-21.484375,-19.53125,-0.9765625
121.54296875,-44.921875,-22.4609375,-21.97265625,20.01953125
121.546875,-33.203125,-26.3671875,-22.94921875,-2.9296875
121.55078125,-19.53125,-20.99609375,-17.578125,-26.85546875
121.5546875,-35.15625,-17.08984375,-13.18359375,-7.32421875
121.55859375,-29.296875,-19.04296875,-15.13671875,14.16015625
121.5625,-15.625,-17.08984375,-15.13671875,11.71875
121.56640625,-13.18359375,-21.97265625,-17.08984375,2.9296875
121.5703125,-15.625,-26.85546875,-14.6484375,3.90625
121.57421875,-25.87890625,-24.90234375,-13.18359375,1.46484375
121.578125,-20.5078125,-28.80859375,-15.625,4.8828125
121.58203125,-20.01953125,-25.390625,-15.13671875,-0.9765625
121.5859375,-27.34375,-15.13671875,-12.20703125,-7.8125
121.58984375,-27.83203125,-19.04296875,-11.71875,-0.48828125
121.59375,-25.390625,-14.16015625,-15.625,24.90234375
121.59765625,-16.11328125,-13.18359375,-21.97265625,20.01953125
121.6015625,-16.6015625,-16.6015625,-29.296875,-13.671875
121.60546875,-27.83203125,-16.6015625,-33.69140625,-27.34375
121.609375,-23.4375,-19.04296875,-23.92578125,-24.90234375
121.61328125,-18.06640625,-27.83203125,-11.23046875,1.46484375
121.6171875,-16.6015625,-40.0390625,-2.9296875,11.71875
121.62109375,-29.296875,-28.80859375,-12.6953125,-18.5546875
121.625,-42.48046875,-10.25390625,-28.3203125,-36.62109375
121.62890625,-28.80859375,-7.32421875,-27.83203125,-17.08984375
121.6328125,-20.5078125,-5.37109375,-30.76171875,-25.390625
121.63671875,-26.85546875,-0.9765625,-31.25,-42.48046875
121.640625,-17.08984375,4.39453125,-26.3671875,-34.1796875
121.64453125,-7.32421875,11.71875,-22.4609375,-17.578125
121.6484375,-0.9765625,12.6953125,-23.92578125,-22.4609375
121.65234375,7.32421875,17.08984375,-26.3671875,-41.9921875
121.65625,4.39453125,20.5078125,-26.3671875,-37.109375
121.66015625,18.5546875,26.85546875,-23.4375,-20.5078125
121.6640625,22.4609375,32.71484375,-23.4375,-19.04296875
121.66796875,25.87890625,39.55078125,-25.87890625,-28.3203125
121.671875,37.59765625,47.36328125,-24.4140625,-28.3203125
121.67578125,41.015625,46.875,-30.76171875,-11.23046875
121.6796875,45.41015625,43.9453125,-33.69140625,-1.953125
121.68359375,50.78125,46.875,-29.78515625,-2.9296875
121.6875,54.19921875,54.6875,-29.296875,-0.48828125
121.69140625,46.875,51.26953125,-26.3671875,11.71875
121.6953125,57.12890625,49.31640625,-25.87890625,33.203125
121.69921875,62.5,46.38671875,-25.390625,22.4609375
121.703125,49.31640625,41.9921875,-23.92578125,6.8359375
121.70703125,49.31640625,43.45703125,-19.53125,21.97265625
121.7109375,54.6875,45.41015625,-20.5078125,30.76171875
121.71484375,48.33984375,38.57421875,-20.99609375,21.484375
121.71875,47.8515625,33.69140625,-12.20703125,15.625
121.72265625,48.828125,29.296875,-8.7890625,15.625
121.7265625,40.0390625,24.4140625,-16.6015625,20.5078125
121.73046875,42.48046875,19.04296875,-18.06640625,25.87890625
121.734375,41.50390625,15.625,-13.18359375,11.23046875
121.73828125,40.52734375,16.6015625,-13.671875,16.6015625
121.7421875,39.55078125,12.6953125,-17.08984375,39.0625
121.74609375,34.66796875,12.20703125,-18.5546875,41.015625
121.75,26.85546875,13.671875,-17.578125,25.87890625
121.75390625,18.5546875,9.765625,-15.13671875,13.671875
121.7578125,12.20703125,3.41796875,-14.16015625,9.765625
121.76171875,16.11328125,1.953125,-14.6484375,23.92578125
121.765625,16.6015625,1.46484375,-12.20703125,20.99609375
121.76953125,14.16015625,0.9765625,-9.765625,2.9296875
121.7734375,17.08984375,2.44140625,-11.23046875,12.20703125
121.77734375,11.23046875,0.9765625,-17.08984375,32.2265625
121.78125,3.90625,1.46484375,-17.08984375,26.3671875
121.78515625,-0.48828125,3.90625,-15.13671875,9.27734375
121.7890625,-7.8125,-6.8359375,-17.578125,8.30078125
121.79296875,-6.34765625,-13.18359375,-11.23046875,18.06640625
121.796875,-2.44140625,-10.25390625,-12.20703125,15.13671875
121.80078125,-1.46484375,-12.20703125,-16.6015625,1.953125
121.8046875,1.46484375,-14.6484375,-16.11328125,-12.20703125
121.80859375,-16.11328125,-19.04296875,-21.97265625,1.46484375
121.8125,-17.08984375,-17.08984375,-22.94921875,20.5078125
121.81640625,-14.6484375,-16.6015625,-22.4609375,-15.13671875
121.8203125,-24.90234375,-20.99609375,-23.4375,-32.2265625
121.82421875,-21.484375,-20.99609375,-19.04296875,-13.18359375
121.828125,-25.87890625,-20.5078125,-20.5078125,-0.9765625
121.83203125,-25.390625,-19.04296875,-26.85546875,-12.6953125
121.8359375,-26.3671875,-18.06640625,-24.90234375,-25.87890625
121.83984375,-29.296875,-19.53125,-24.4140625,-15.625
121.84375,-13.671875,-16.11328125,-15.625,8.7890625
121.84765625,-2.9296875,-11.23046875,-4.39453125,1.953125
121.8515625,-20.99609375,-19.04296875,-11.71875,-17.08984375
121.85546875,-26.85546875,-25.87890625,-22.94921875,-15.13671875
121.859375,-16.6015625,-21.97265625,-17.578125,-0.48828125
121.86328125,-10.25390625,-22.4609375,-11.23046875,0.48828125
121.8671875,-20.99609375,-23.92578125,-10.25390625,-16.11328125
121.87109375,-32.2265625,-24.90234375,-12.6953125,-21.484375
121.875,-31.25,-21.484375,-13.671875,-16.11328125
121.87890625,-39.0625,-18.06640625,-10.25390625,-9.765625
121.8828125,-38.57421875,-17.08984375,-9.27734375,-23.4375
121.88671875,-25.390625,-22.94921875,-15.625,-48.828125
121.890625,-26.3671875,-25.87890625,-16.6015625,-44.921875
121.89453125,-30.2734375,-20.5078125,-11.71875,-11.71875
121.8984375,-32.71484375,-21.97265625,-17.578125,-14.16015625
121.90234375,-37.109375,-23.92578125,-21.97265625,-32.71484375
121.90625,-38.0859375,-25.390625,-20.5078125,-26.85546875
121.91015625,-38.0859375,-26.3671875,-18.5546875,-16.11328125
121.9140625,-33.203125,-24.90234375,-18.5546875,-9.27734375
121.91796875,-36.1328125,-23.4375,-14.16015625,-20.01953125
121.921875,-43.45703125,-26.3671875,-11.71875,-17.578125
121.92578125,-48.828125,-30.76171875,-9.765625,-1.46484375
121.9296875,-42.48046875,-27.83203125,-8.30078125,3.90625
121.93359375,-23.4375,-18.5546875,-13.18359375,-16.11328125
121.9375,-21.97265625,-20.5078125,-20.5078125,-26.3671875
121.94140625,-39.55078125,-20.99609375,-20.5078125,-9.765625
121.9453125,-33.69140625,-18.5546875,-18.06640625,0.0
121.94921875,-33.203125,-24.4140625,-21.484375,-15.625
121.953125,-42.48046875,-33.203125,-25.390625,-28.80859375
121.95703125,-39.55078125,-29.78515625,-25.390625,-18.5546875
121.9609375,-27.34375,-21.484375,-19.53125,0.9765625
121.96484375,-23.92578125,-18.5546875,-16.11328125,-11.71875
121.96875,-29.296875,-18.5546875,-11.71875,-16.6015625
121.97265625,-20.01953125,-21.484375,-11.71875,1.46484375
121.9765625,-10.7421875,-23.92578125,-15.625,10.25390625
121.98046875,-9.765625,-28.80859375,-9.765625,11.23046875
121.984375,-21.484375,-32.71484375,-11.23046875,-6.8359375
121.98828125,-29.78515625,-29.78515625,-10.25390625,-16.6015625
121.9921875,-19.53125,-25.87890625,-10.25390625,-2.44140625
121.99609375,-20.99609375,-25.390625,-10.7421875,12.20703125
122.0,-30.2734375,-26.85546875,-10.25390625,5.37109375
122.00390625,-42.48046875,-30.2734375,-17.578125,-9.27734375
122.0078125,-43.45703125,-32.2265625,-21.484375,-10.7421875
122.01171875,-31.25,-30.76171875,-15.625,-1.46484375
122.015625,-29.296875,-25.87890625,-18.5546875,-5.37109375
122.01953125,-35.15625,-29.78515625,-16.6015625,-10.7421875
122.0234375,-32.71484375,-29.296875,-11.23046875,-0.9765625
122.02734375,-22.4609375,-25.87890625,-16.11328125,12.20703125
122.03125,-22.4609375,-22.94921875,-16.11328125,15.625
122.03515625,-23.92578125,-19.04296875,-13.671875,-14.6484375
122.0390625,-25.87890625,-19.04296875,-20.01953125,-27.83203125
122.04296875,-29.296875,-20.99609375,-19.53125,-1.46484375
122.046875,-19.04296875,-20.01953125,-13.18359375,7.32421875
122.05078125,-14.6484375,-19.04296875,-15.625,-4.8828125
122.0546875,-31.25,-20.5078125,-19.04296875,-13.671875
122.05859375,-39.55078125,-24.90234375,-9.765625,2.9296875
122.0625,-32.2265625,-28.80859375,-13.671875,11.23046875
122.06640625,-35.15625,-26.85546875,-24.4140625,-8.30078125
122.0703125,-37.109375,-24.90234375,-21.97265625,-13.671875
122.07421875,-39.55078125,-22.94921875,-19.53125,-6.34765625
122.078125,-36.62109375,-18.5546875,-19.53125,-3.41796875
122.08203125,-25.390625,-16.11328125,-15.625,-7.8125
122.0859375,-31.25,-16.11328125,-15.625,-19.04296875
122.08984375,-31.25,-17.578125,-15.13671875,-22.4609375
122.09375,-31.25,-20.01953125,-10.7421875,-10.7421875
122.09765625,-22.4609375,-25.390625,-16.6015625,-8.7890625
122.1015625,-28.3203125,-27.83203125,-18.5546875,-24.90234375
122.10546875,-46.875,-29.78515625,-19.04296875,-25.390625
122.109375,-26.85546875,-29.296875,-20.01953125,-8.30078125
122.11328125,-25.390625,-30.76171875,-21.484375,-9.27734375
122.1171875,-46.38671875,-29.78515625,-24.90234375,-20.5078125
122.12109375,-49.31640625,-30.2734375,-20.99609375,-25.87890625
122.125,-48.33984375,-31.73828125,-21.97265625,-25.390625
122.12890625,-39.0625,-28.80859375,-18.06640625,-11.71875
122.1328125,-38.0859375,-26.3671875,-16.6015625,-23.92578125
122.13671875,-43.9453125,-26.85546875,-25.390625,-42.48046875
122.140625,-32.2265625,-27.83203125,-23.4375,-27.34375
122.14453125,-25.87890625,-23.4375,-16.11328125,-1.953125
122.1484375,-29.78515625,-26.3671875,-16.11328125,-8.30078125
122.15234375,-30.76171875,-32.71484375,-21.97265625,-30.76171875
122.15625,-24.4140625,-29.296875,-20.5078125,-31.25
122.16015625,-24.90234375,-23.4375,-17.08984375,-13.671875
122.1640625,-31.73828125,-20.01953125,-16.11328125,-3.90625
122.16796875,-40.52734375,-27.83203125,-16.6015625,-28.80859375
122.171875,-45.41015625,-35.64453125,-16.6015625,-40.0390625
122.17578125,-33.203125,-26.3671875,-13.671875,-7.32421875
122.1796875,-24.90234375,-19.04296875,-12.6953125,8.30078125
122.18359375,-17.08984375,-25.390625,-10.7421875,-16.11328125
122.1875,-8.30078125,-23.92578125,-14.6484375,-40.52734375
122.19140625,-18.06640625,-17.578125,-20.01953125,-32.2265625
122.1953125,-15.13671875,-20.5078125,-19.53125,-11.71875
122.19921875,-12.6953125,-25.87890625,-20.5078125,-10.7421875
122.203125,-24.90234375,-27.34375,-23.4375,-27.83203125
122.20703125,-21.97265625,-28.3203125,-16.6015625,-20.01953125
122.2109375,-16.6015625,-31.25,-16.11328125,-1.46484375
122.21484375,-12.6953125,-29.78515625,-19.53125,-13.18359375
122.21875,-13.18359375,-30.2734375,-14.6484375,-34.1796875
122.22265625,-31.25,-35.15625,-11.23046875,-28.3203125
122.2265625,-26.85546875,-42.48046875,-10.25390625,-12.20703125
122.23046875,-8.30078125,-40.52734375,-9.27734375,-6.34765625
122.234375,-7.8125,-33.203125,-8.7890625,-17.08984375
122.23828125,-3.90625,-29.78515625,-16.6015625,-21.97265625
122.2421875,-2.44140625,-30.76171875,-20.99609375,-15.13671875
122.24609375,0.9765625,-30.2734375,-19.04296875,-13.18359375
122.25,-5.37109375,-27.83203125,-20.99609375,-23.4375
122.25390625,-6.34765625,-26.85546875,-17.578125,-23.4375
122.2578125,-16.11328125,-28.3203125,-16.11328125,-6.8359375
122.26171875,-14.6484375,-29.296875,-15.13671875,0.0
122.265625,-1.953125,-25.390625,-15.13671875,-10.25390625
122.26953125,-11.71875,-26.85546875,-20.01953125,-25.390625
122.2734375,-5.859375,-28.3203125,-21.484375,-20.99609375
122.27734375,-8.7890625,-23.92578125,-14.6484375,-4.39453125
122.28125,-7.8125,-18.06640625,-7.8125,-2.9296875
122.28515625,-7.32421875,-22.94921875,-13.18359375,-26.85546875
122.2890625,-18.06640625,-29.78515625,-17.578125,-31.25
122.29296875,-16.6015625,-29.78515625,-19.04296875,-17.578125
122.296875,-10.7421875,-24.4140625,-19.53125,-16.6015625
122.30078125,0.9765625,-13.18359375,-21.484375,-42.48046875
122.3046875,-0.9765625,-11.23046875,-21.484375,-45.8984375
122.30859375,-20.01953125,-16.6015625,-19.53125,-21.484375
122.3125,-9.27734375,-16.11328125,-18.06640625,-16.11328125
122.31640625,-15.13671875,-19.53125,-16.11328125,-25.87890625
122.3203125,-40.52734375,-22.4609375,-20.99609375,-36.1328125
122.32421875,-37.59765625,-20.5078125,-20.5078125,-35.15625
122.328125,-21.484375,-14.6484375,-14.6484375,-17.578125
122.33203125,-26.85546875,-13.18359375,-22.4609375,-19.53125
122.3359375,-43.9453125,-17.578125,-26.85546875,-45.41015625
122.33984375,-36.1328125,-19.04296875,-16.11328125,-37.59765625
122.34375,-28.3203125,-14.6484375,-13.18359375,-16.11328125
122.34765625,-21.97265625,-5.37109375,-11.23046875,-14.6484375
122.3515625,-33.69140625,-11.71875,-17.578125,-30.76171875
122.35546875,-43.45703125,-21.484375,-24.90234375,-35.15625
122.359375,-32.2265625,-17.578125,-22.94921875,-17.578125
122.36328125,-22.94921875,-15.625,-18.5546875,-25.87890625
122.3671875,-37.109375,-21.97265625,-23.4375,-55.6640625
122.37109375,-52.734375,-27.34375,-22.4609375,-44.921875
122.375,-46.875,-27.34375,-18.5546875,-25.87890625
122.37890625,-39.55078125,-24.4140625,-22.94921875,-24.90234375
122.3828125,-40.52734375,-20.99609375,-21.97265625,-30.76171875
122.38671875,-39.55078125,-23.4375,-22.4609375,-41.50390625
122.390625,-44.43359375,-27.34375,-25.390625,-37.59765625
122.39453125,-40.52734375,-23.4375,-22.4609375,-28.80859375
122.3984375,-36.62109375,-25.87890625,-18.06640625,-30.76171875
122.40234375,-41.50390625,-28.3203125,-18.06640625,-39.0625
122.40625,-40.0390625,-20.99609375,-20.99609375,-40.52734375
122.41015625,-44.921875,-19.04296875,-20.5078125,-25.87890625
122.4140625,-44.43359375,-25.390625,-21.97265625,-30.76171875
122.41796875,-52.734375,-30.76171875,-20.01953125,-46.875
122.421875,-61.5234375,-27.34375,-18.5546875,-51.26953125
122.42578125,-54.6875,-25.87890625,-20.01953125,-41.9921875
122.4296875,-49.8046875,-30.76171875,-16.11328125,-27.34375
122.43359375,-42.96875,-28.3203125,-19.53125,-41.9921875
122.4375,-45.41015625,-23.92578125,-20.99609375,-51.26953125
122.44140625,-48.33984375,-25.390625,-14.16015625,-33.69140625
122.4453125,-42.96875,-22.94921875,-16.11328125,-21.97265625
122.44921875,-44.921875,-26.85546875,-18.06640625,-32.2265625
122.453125,-59.5703125,-35.64453125,-21.484375,-59.08203125
122.45703125,-58.10546875,-31.73828125,-23.92578125,-56.15234375
122.4609375,-41.50390625,-26.3671875,-24.4140625,-29.296875
122.46484375,-33.69140625,-26.3671875,-23.4375,-30.2734375
122.46875,-42.96875,-27.34375,-24.90234375,-44.921875
122.47265625,-57.6171875,-28.3203125,-27.83203125,-35.15625
122.4765625,-58.59375,-24.90234375,-24.90234375,-24.90234375
122.48046875,-54.6875,-27.34375,-28.3203125,-35.64453125
122.484375,-51.26953125,-29.78515625,-27.34375,-50.29296875
122.48828125,-51.26953125,-26.85546875,-23.4375,-55.6640625
122.4921875,-66.89453125,-26.3671875,-21.484375,-42.96875
122.49609375,-63.96484375,-30.2734375,-22.94921875,-23.4375
122.5,-59.5703125,-30.2734375,-24.4140625,-38.57421875
122.50390625,-58.59375,-27.34375,-20.01953125,-53.7109375
122.5078125,-48.33984375,-28.3203125,-22.4609375,-27.83203125
122.51171875,-48.828125,-25.87890625,-27.34375,-14.6484375
122.515625,-44.43359375,-23.4375,-26.3671875,-27.34375
122.51953125,-46.875,-24.90234375,-32.71484375,-41.015625
122.5234375,-60.546875,-26.3671875,-28.80859375,-35.64453125
122.52734375,-62.01171875,-33.69140625,-21.97265625,-26.85546875
122.53125,-52.24609375,-33.69140625,-22.94921875,-44.43359375
122.53515625,-38.0859375,-26.85546875,-25.390625,-54.19921875
122.5390625,-50.78125,-33.203125,-20.99609375,-47.8515625
122.54296875,-60.05859375,-41.50390625,-20.01953125,-35.15625
122.546875,-51.26953125,-37.109375,-21.484375,-34.66796875
122.55078125,-51.7578125,-33.203125,-19.04296875,-49.31640625
122.5546875,-61.03515625,-34.66796875,-22.4609375,-50.29296875
122.55859375,-53.22265625,-34.66796875,-21.484375,-27.83203125
122.5625,-45.41015625,-32.2265625,-20.5078125,-12.20703125
122.56640625,-52.734375,-27.83203125,-20.01953125,-15.625
122.5703125,-56.640625,-29.296875,-25.390625,-43.45703125
122.57421875,-56.15234375,-31.73828125,-28.3203125,-46.38671875
122.578125,-55.6640625,-29.78515625,-26.85546875,-22.4609375
122.58203125,-44.921875,-24.90234375,-27.34375,-26.85546875
122.5859375,-46.875,-28.3203125,-25.390625,-37.109375
122.58984375,-48.828125,-27.83203125,-24.90234375,-31.25
122.59375,-43.45703125,-27.83203125,-20.99609375,-13.18359375
122.59765625,-44.921875,-31.73828125,-22.4609375,-26.3671875
122.6015625,-40.0390625,-32.2265625,-29.296875,-43.45703125
122.60546875,-44.43359375,-34.1796875,-23.4375,-26.3671875
122.609375,-46.875,-33.203125,-18.06640625,-16.11328125
122.61328125,-32.2265625,-31.73828125,-21.97265625,-16.6015625
122.6171875,-24.4140625,-30.2734375,-20.01953125,-20.01953125
122.62109375,-23.4375,-28.3203125,-13.18359375,-20.99609375
122.625,-38.0859375,-30.76171875,-14.6484375,-16.6015625
122.62890625,-32.71484375,-28.3203125,-17.08984375,-7.8125
122.6328125,-22.4609375,-22.94921875,-23.4375,-19.04296875
122.63671875,-29.78515625,-23.4375,-20.01953125,-35.64453125
122.640625,-34.66796875,-25.390625,-18.5546875,-19.04296875
122.64453125,-20.5078125,-23.4375,-26.85546875,-10.7421875
122.6484375,-0.9765625,-19.53125,-31.73828125,-26.3671875
122.65234375,0.9765625,-19.04296875,-31.73828125,-23.4375
122.65625,-15.625,-23.4375,-23.92578125,-6.34765625
122.66015625,-25.87890625,-22.4609375,-22.4609375,-2.44140625
122.6640625,-21.484375,-22.4609375,-25.87890625,1.953125
122.66796875,-14.16015625,-21.484375,-21.97265625,-10.7421875
122.671875,-12.6953125,-21.484375,-18.5546875,-21.97265625
122.67578125,-5.37109375,-20.5078125,-18.5546875,-14.16015625
122.6796875,-6.34765625,-17.578125,-20.5078125,0.0
122.68359375,-12.6953125,-16.6015625,-20.5078125,-8.30078125
122.6875,-21.484375,-17.08984375,-17.578125,-19.04296875
122.69140625,-19.53125,-22.4609375,-16.6015625,-19.53125
122.6953125,-13.671875,-20.99609375,-16.11328125,-14.16015625
122.69921875,-15.625,-24.4140625,-18.5546875,-15.13671875
122.703125,-17.08984375,-27.83203125,-21.97265625,-36.62109375
122.70703125,-13.18359375,-19.53125,-22.94921875,-25.390625
122.7109375,-9.765625,-20.5078125,-24.4140625,-13.18359375
122.71484375,-1.46484375,-20.5078125,-29.296875,-22.94921875
122.71875,-15.13671875,-17.578125,-29.296875,-25.87890625
122.72265625,-14.16015625,-15.625,-24.90234375,-18.06640625
122.7265625,-7.8125,-16.11328125,-17.08984375,-12.6953125
122.73046875,-18.06640625,-20.01953125,-13.18359375,-19.53125
122.734375,-4.39453125,-15.625,-18.5546875,-19.53125
122.73828125,-8.30078125,-13.18359375,-20.99609375,-14.16015625
122.7421875,-14.16015625,-12.20703125,-18.5546875,-4.39453125
122.74609375,-10.25390625,-12.6953125,-20.01953125,6.34765625
122.75,-14.16015625,-18.06640625,-23.4375,-8.30078125
122.75390625,-14.16015625,-19.04296875,-17.578125,-24.90234375
122.7578125,-17.578125,-17.578125,-17.578125,-15.625
122.76171875,-14.6484375,-15.625,-17.578125,10.25390625
122.765625,-10.25390625,-13.18359375,-17.08984375,-2.9296875
122.76953125,-2.44140625,-12.6953125,-20.5078125,-35.64453125
122.7734375,-10.25390625,-14.6484375,-24.90234375,-32.71484375
122.77734375,-24.90234375,-13.671875,-24.90234375,-21.97265625
122.78125,-6.34765625,-10.7421875,-17.08984375,-22.94921875
122.78515625,-2.9296875,-7.8125,-16.6015625,-35.15625
122.7890625,-19.04296875,-7.8125,-22.4609375,-43.9453125
122.79296875,-21.97265625,-10.7421875,-25.87890625,-32.2265625
122.796875,-14.6484375,-19.53125,-31.25,-35.64453125
122.80078125,-19.53125,-25.390625,-30.2734375,-50.29296875
122.8046875,-33.203125,-25.87890625,-23.92578125,-39.55078125
122.80859375,-29.296875,-20.5078125,-18.5546875,-17.578125
122.8125,-21.97265625,-18.06640625,-16.11328125,-21.484375
122.81640625,-24.90234375,-23.4375,-17.578125,-52.24609375
122.8203125,-19.53125,-22.94921875,-21.484375,-56.640625
122.82421875,-7.32421875,-18.06640625,-24.4140625,-39.0625
122.828125,-7.32421875,-14.16015625,-18.5546875,-23.4375
122.83203125,-15.625,-14.16015625,-18.06640625,-19.04296875
122.8359375,-38.0859375,-20.99609375,-24.90234375,-40.52734375
122.83984375,-36.62109375,-23.92578125,-22.94921875,-51.7578125
122.84375,-24.4140625,-23.92578125,-18.5546875,-27.83203125
122.84765625,-32.2265625,-24.4140625,-21.484375,-29.78515625
122.8515625,-28.80859375,-25.390625,-26.3671875,-33.203125
122.85546875,-29.296875,-28.80859375,-20.01953125,-35.64453125
122.859375,-31.25,-26.85546875,-17.578125,-33.69140625
122.86328125,-28.80859375,-21.97265625,-22.4609375,-18.06640625
122.8671875,-35.15625,-24.4140625,-21.484375,-23.92578125
122.87109375,-32.71484375,-28.80859375,-26.3671875,-42.48046875
122.875,-27.34375,-23.92578125,-22.94921875,-22.94921875
122.87890625,-25.390625,-18.06640625,-15.13671875,3.41796875
122.8828125,-27.34375,-23.92578125,-21.97265625,-19.04296875
122.88671875,-36.1328125,-24.90234375,-31.25,-32.71484375
122.890625,-32.71484375,-20.01953125,-30.76171875,-22.4609375
122.89453125,-23.4375,-22.4609375,-26.3671875,1.46484375
122.8984375,-20.5078125,-28.3203125,-26.3671875,2.44140625
122.90234375,-25.390625,-29.296875,-27.83203125,-18.5546875
122.90625,-32.2265625,-26.85546875,-26.85546875,-20.99609375
122.91015625,-30.76171875,-23.92578125,-28.3203125,2.44140625
122.9140625,-29.296875,-22.94921875,-24.90234375,3.41796875
122.91796875,-33.203125,-21.97265625,-24.4140625,-6.34765625
122.921875,-30.2734375,-24.4140625,-26.3671875,-3.41796875
122.92578125,-17.08984375,-26.3671875,-23.92578125,-7.32421875
122.9296875,-25.390625,-27.34375,-29.78515625,-4.8828125
122.93359375,-21.484375,-29.296875,-32.71484375,1.46484375
122.9375,-13.671875,-29.296875,-26.85546875,-5.859375
122.94140625,-36.1328125,-31.25,-24.90234375,5.37109375
122.9453125,-48.33984375,-29.78515625,-24.90234375,15.13671875
122.94921875,-39.55078125,-31.25,-29.78515625,-14.6484375
122.953125,-34.66796875,-31.25,-36.1328125,-26.3671875
122.95703125,-32.2265625,-25.87890625,-30.76171875,-21.484375
122.9609375,-31.73828125,-22.94921875,-26.85546875,-23.92578125
122.96484375,-35.64453125,-21.97265625,-25.87890625,-20.5078125
122.96875,-47.36328125,-21.484375,-20.01953125,-27.83203125
122.97265625,-46.38671875,-19.53125,-15.13671875,-23.4375
122.9765625,-30.76171875,-13.671875,-14.16015625,-8.7890625
122.98046875,-34.66796875,-14.6484375,-12.6953125,6.34765625
122.984375,-38.0859375,-20.99609375,-15.13671875,-10.7421875
122.98828125,-34.1796875,-20.01953125,-17.08984375,-25.390625
122.9921875,-41.50390625,-21.97265625,-20.01953125,-25.87890625
122.99609375,-32.2265625,-18.06640625,-19.04296875,-33.203125
123.0,-17.08984375,-13.671875,-17.08984375,-41.50390625
123.00390625,-27.34375,-16.11328125,-19.04296875,-53.22265625
123.0078125,-30.76171875,-18.5546875,-17.08984375,-32.71484375
123.01171875,-26.85546875,-17.578125,-21.97265625,-14.16015625
123.015625,-24.90234375,-17.578125,-20.99609375,-22.94921875
123.01953125,-20.5078125,-19.04296875,-17.578125,-30.2734375
123.0234375,-28.3203125,-20.5078125,-18.5546875,-18.06640625
123.02734375,-19.04296875,-24.4140625,-18.5546875,-3.90625
123.03125,3.41796875,-19.53125,-20.01953125,-4.8828125
123.03515625,-1.46484375,-16.11328125,-21.484375,-8.30078125
123.0390625,-19.53125,-21.484375,-20.01953125,-9.27734375
123.04296875,-12.6953125,-18.06640625,-17.578125,3.90625
123.046875,1.46484375,-12.20703125,-19.04296875,14.16015625
123.05078125,-10.7421875,-14.16015625,-28.3203125,-14.6484375
123.0546875,-22.4609375,-18.06640625,-24.4140625,-18.5546875
123.05859375,-23.92578125,-19.53125,-20.01953125,-6.34765625
123.0625,-20.01953125,-21.484375,-20.5078125,-13.671875
123.06640625,-17.08984375,-18.5546875,-17.08984375,-21.97265625
123.0703125,-13.18359375,-14.16015625,-19.04296875,-19.04296875
123.07421875,-12.6953125,-14.16015625,-22.4609375,-18.06640625
123.078125,-19.53125,-14.16015625,-19.53125,-7.8125
123.08203125,-17.08984375,-7.32421875,-20.99609375,-2.9296875
123.0859375,-18.5546875,-13.671875,-24.4140625,-15.13671875
123.08984375,-24.4140625,-20.01953125,-23.4375,-14.16015625
123.09375,-12.6953125,-17.578125,-26.3671875,-4.8828125
123.09765625,-22.4609375,-20.99609375,-25.87890625,0.9765625
123.1015625,-30.2734375,-17.08984375,-25.87890625,-10.7421875
123.10546875,-22.94921875,-15.13671875,-26.85546875,-20.01953125
123.109375,-19.04296875,-15.13671875,-17.578125,-0.9765625
123.11328125,-17.578125,-14.6484375,-16.11328125,8.30078125
123.1171875,-37.59765625,-22.94921875,-24.90234375,-16.11328125
123.12109375,-38.0859375,-29.296875,-23.92578125,-26.3671875
123.125,-21.97265625,-23.92578125,-16.6015625,-2.9296875
123.12890625,-22.94921875,-17.578125,-22.4609375,7.8125
123.1328125,-33.69140625,-18.5546875,-27.83203125,-13.671875
123.13671875,-41.50390625,-22.4609375,-23.92578125,-22.4609375
123.140625,-36.62109375,-22.94921875,-24.4140625,-8.30078125
123.14453125,-27.83203125,-17.08984375,-23.4375,-4.39453125
123.1484375,-36.62109375,-17.578125,-20.01953125,-15.625
123.15234375,-44.921875,-23.4375,-26.3671875,-20.99609375
123.15625,-36.62109375,-21.484375,-21.484375,-9.765625
123.16015625,-37.109375,-17.08984375,-16.6015625,-9.765625
123.1640625,-42.48046875,-21.484375,-26.3671875,-16.11328125
123.16796875,-33.203125,-20.99609375,-30.2734375,-27.83203125
123.171875,-28.3203125,-18.06640625,-23.4375,-44.43359375
123.17578125,-26.3671875,-17.08984375,-24.90234375,-29.296875
123.1796875,-26.85546875,-16.6015625,-28.3203125,-20.5078125
123.18359375,-27.83203125,-21.484375,-22.94921875,-30.2734375
123.1875,-25.390625,-21.97265625,-18.06640625,-40.52734375
123.19140625,-20.01953125,-16.11328125,-15.625,-18.5546875
123.1953125,-21.484375,-17.578125,-14.6484375,-16.11328125
123.19921875,-24.90234375,-20.99609375,-18.5546875,-32.71484375
123.203125,-33.69140625,-20.01953125,-21.97265625,-45.8984375
123.20703125,-16.6015625,-19.53125,-9.27734375,-35.15625
123.2109375,-7.8125,-20.99609375,-8.30078125,-12.20703125
123.21484375,-30.76171875,-17.578125,-19.53125,-48.828125
123.21875,-54.6875,-18.5546875,-25.87890625,-76.171875
123.22265625,-63.4765625,-26.85546875,-30.2734375,-81.0546875
123.2265625,-60.546875,-25.390625,-29.296875,-76.66015625
123.23046875,-67.3828125,-26.3671875,-32.71484375,-76.66015625
123.234375,-84.9609375,-33.203125,-35.64453125,-106.4453125
123.23828125,-97.16796875,-33.203125,-30.76171875,-100.5859375
123.2421875,-106.4453125,-35.64453125,-29.296875,-75.68359375
123.24609375,-96.6796875,-31.25,-31.25,-69.82421875
123.25,-67.3828125,-27.34375,-28.80859375,-66.40625
123.25390625,-62.01171875,-25.390625,-27.83203125,-73.2421875
123.2578125,-60.546875,-21.97265625,-30.76171875,-64.94140625
123.26171875,-42.96875,-21.97265625,-26.3671875,-48.828125
123.265625,-42.96875,-24.4140625,-24.4140625,-61.03515625
123.26953125,-42.48046875,-24.4140625,-28.3203125,-65.4296875
123.2734375,-44.921875,-17.578125,-22.94921875,-42.96875
123.27734375,-45.41015625,-14.6484375,-19.53125,-12.6953125
123.28125,-28.3203125,-17.578125,-25.390625,-11.23046875
123.28515625,-34.1796875,-19.53125,-25.390625,-38.0859375
123.2890625,-35.15625,-21.97265625,-25.87890625,-33.69140625
123.29296875,-35.64453125,-24.4140625,-24.90234375,-10.25390625
123.296875,-41.015625,-24.90234375,-18.5546875,-19.04296875
123.30078125,-39.55078125,-24.4140625,-20.01953125,-48.828125
123.3046875,-46.38671875,-26.85546875,-24.4140625,-47.8515625
123.30859375,-55.17578125,-27.83203125,-24.90234375,-29.78515625
123.3125,-39.0625,-25.87890625,-20.5078125,-16.6015625
123.31640625,-37.109375,-27.83203125,-24.4140625,-24.4140625
123.3203125,-43.9453125,-27.34375,-32.2265625,-37.109375
123.32421875,-36.62109375,-24.90234375,-23.4375,-22.4609375
123.328125,-41.015625,-27.34375,-19.53125,-15.13671875
123.33203125,-42.48046875,-29.296875,-20.99609375,-19.53125
123.3359375,-34.66796875,-26.85546875,-13.18359375,-27.83203125
123.33984375,-30.76171875,-27.34375,-12.20703125,-22.94921875
123.34375,-27.83203125,-28.80859375,-16.11328125,-1.46484375
123.34765625,-20.5078125,-23.92578125,-16.11328125,-8.7890625
123.3515625,-20.01953125,-26.3671875,-18.06640625,-24.4140625
123.35546875,-21.97265625,-34.66796875,-20.5078125,-20.99609375
123.359375,-27.34375,-29.296875,-18.06640625,1.953125
123.36328125,-18.5546875,-22.94921875,-17.578125,3.90625
123.3671875,-0.9765625,-20.01953125,-19.53125,-6.34765625
123.37109375,-14.16015625,-20.99609375,-14.16015625,-8.7890625
123.375,-36.1328125,-27.34375,-14.16015625,-6.8359375
123.37890625,-34.1796875,-29.78515625,-16.6015625,-0.48828125
123.3828125,-22.94921875,-27.83203125,-16.11328125,-3.90625
123.38671875,-18.5546875,-23.4375,-20.99609375,-13.18359375
123.390625,-22.4609375,-20.99609375,-21.484375,-15.625
123.39453125,-30.2734375,-20.01953125,-20.01953125,2.9296875
123.3984375,-22.94921875,-26.3671875,-20.01953125,1.953125
123.40234375,-11.71875,-31.73828125,-25.390625,-16.6015625
123.40625,-18.5546875,-27.83203125,-19.53125,-8.7890625
123.41015625,-29.296875,-24.4140625,-7.8125,3.41796875
123.4140625,-17.08984375,-25.390625,-11.23046875,18.06640625
123.41796875,-10.7421875,-24.4140625,-13.18359375,4.8828125
123.421875,-21.484375,-20.5078125,-12.6953125,-9.27734375
123.42578125,-27.34375,-16.11328125,-14.6484375,10.25390625
123.4296875,-24.90234375,-15.13671875,-14.6484375,11.71875
123.43359375,-23.92578125,-14.6484375,-15.625,-20.99609375
123.4375,-30.2734375,-17.578125,-11.23046875,-32.71484375
123.44140625,-16.6015625,-18.5546875,-6.8359375,-3.90625
123.4453125,0.48828125,-18.06640625,-7.32421875,9.765625
123.44921875,-13.18359375,-27.34375,-13.18359375,-3.41796875
123.453125,-24.90234375,-27.34375,-17.578125,-6.8359375
123.45703125,-18.5546875,-21.484375,-21.484375,-3.41796875
123.4609375,-21.97265625,-23.92578125,-20.01953125,-0.9765625
123.46484375,-26.85546875,-26.3671875,-18.5546875,5.859375
123.46875,-30.2734375,-26.3671875,-25.87890625,-18.5546875
123.47265625,-37.109375,-26.3671875,-30.2734375,-32.71484375
123.4765625,-34.1796875,-32.2265625,-31.73828125,-9.765625
123.48046875,-11.71875,-34.1796875,-23.4375,8.7890625
123.484375,-10.7421875,-27.34375,-21.484375,-2.44140625
123.48828125,-31.25,-16.6015625,-28.80859375,-20.01953125
123.4921875,-19.53125,-1.46484375,-31.73828125,-19.53125
123.49609375,-10.7421875,4.8828125,-28.3203125,-8.7890625
123.5,-2.44140625,10.25390625,-25.87890625,-22.94921875
123.50390625,-5.37109375,14.6484375,-26.3671875,-32.2265625
123.5078125,-16.6015625,13.671875,-25.87890625,-21.97265625
123.51171875,-4.39453125,17.08984375,-26.3671875,-0.48828125
123.515625,-2.9296875,24.4140625,-29.296875,-14.6484375
123.51953125,-5.37109375,26.85546875,-27.34375,-40.0390625
123.5234375,2.44140625,35.15625,-26.85546875,-37.59765625
123.52734375,-0.9765625,41.9921875,-34.1796875,-29.78515625
123.53125,3.41796875,39.0625,-36.1328125,-26.85546875
123.53515625,5.37109375,41.015625,-36.62109375,-45.8984375
123.5390625,-11.23046875,36.1328125,-41.9921875,-50.78125
123.54296875,-7.32421875,31.25,-41.015625,-24.90234375
123.546875,4.39453125,31.73828125,-35.15625,-21.484375
123.55078125,7.8125,31.73828125,-33.69140625,-48.828125
123.5546875,4.8828125,28.3203125,-37.109375,-51.7578125
123.55859375,-2.44140625,20.99609375,-35.64453125,-39.55078125
123.5625,-1.953125,13.18359375,-32.2265625,-37.59765625
123.56640625,-1.46484375,11.23046875,-33.69140625,-33.203125
123.5703125,0.0,12.20703125,-30.76171875,-34.66796875
123.57421875,10.7421875,6.34765625,-29.296875,-32.2265625
123.578125,3.41796875,3.90625,-29.296875,-24.4140625
123.58203125,3.41796875,5.859375,-22.4609375,-25.390625
123.5859375,0.48828125,0.0,-28.3203125,-40.52734375
123.58984375,-6.8359375,-9.27734375,-35.64453125,-35.64453125
123.59375,-7.32421875,-10.25390625,-26.85546875,-10.25390625
123.59765625,-6.34765625,-0.9765625,-22.4609375,-18.06640625
123.6015625,-8.30078125,-1.46484375,-26.85546875,-40.52734375
123.60546875,-13.18359375,-7.32421875,-28.3203125,-40.0390625
123.609375,-9.765625,-5.37109375,-24.90234375,-26.3671875
123.61328125,-9.765625,-6.8359375,-23.4375,-20.5078125
123.6171875,-21.97265625,-9.765625,-27.34375,-35.64453125
123.62109375,-24.90234375,-12.20703125,-27.34375,-46.875
123.625,-25.390625,-11.71875,-23.92578125,-20.99609375
123.62890625,-12.20703125,-3.90625,-23.4375,7.8125
123.6328125,-5.859375,-4.8828125,-26.85546875,-12.6953125
123.63671875,-13.18359375,-11.23046875,-27.34375,-44.921875
123.640625,-21.97265625,-14.16015625,-29.296875,-50.29296875
123.64453125,-15.13671875,-9.765625,-29.296875,-32.71484375
123.6484375,-8.7890625,-9.765625,-31.25,-28.3203125
123.65234375,-19.04296875,-12.6953125,-35.15625,-38.57421875
123.65625,-26.85546875,-13.671875,-29.296875,-28.80859375
123.66015625,-22.94921875,-13.671875,-22.4609375,-11.23046875
123.6640625,-4.8828125,-12.6953125,-23.92578125,-13.18359375
123.66796875,-9.27734375,-10.25390625,-23.92578125,-30.2734375
123.671875,-22.4609375,-9.765625,-24.4140625,-37.59765625
123.67578125,-21.484375,-8.7890625,-22.94921875,-20.01953125
123.6796875,-16.6015625,-11.23046875,-25.390625,0.9765625
123.68359375,-18.5546875,-11.71875,-24.4140625,-18.06640625
123.6875,-22.94921875,-10.7421875,-20.99609375,-45.8984375
123.69140625,-20.99609375,-12.6953125,-22.4609375,-41.015625
123.6953125,-21.484375,-14.16015625,-21.97265625,-29.296875
123.69921875,-27.34375,-13.671875,-20.01953125,-32.2265625
123.703125,-40.0390625,-8.7890625,-16.6015625,-28.3203125
123.70703125,-41.50390625,-12.6953125,-16.11328125,-25.390625
123.7109375,-23.4375,-19.04296875,-20.5078125,-20.5078125
123.71484375,-27.83203125,-18.5546875,-22.94921875,-23.92578125
123.71875,-41.9921875,-20.99609375,-20.01953125,-33.203125
123.72265625,-41.9921875,-20.99609375,-23.92578125,-30.2734375
123.7265625,-35.64453125,-17.578125,-25.390625,-37.59765625
123.73046875,-38.0859375,-18.5546875,-23.92578125,-35.64453125
123.734375,-33.203125,-23.4375,-23.4375,-33.203125
123.73828125,-28.3203125,-27.34375,-24.4140625,-46.875
123.7421875,-29.78515625,-27.34375,-20.99609375,-25.87890625
123.74609375,-33.69140625,-26.85546875,-20.01953125,-1.953125
123.75,-34.1796875,-22.94921875,-26.3671875,-27.83203125
123.75390625,-32.71484375,-22.94921875,-28.80859375,-49.31640625
123.7578125,-39.55078125,-25.390625,-20.5078125,-37.59765625
123.76171875,-36.62109375,-19.04296875,-20.99609375,-20.99609375
123.765625,-32.71484375,-21.97265625,-23.4375,-32.2265625
123.76953125,-34.1796875,-20.5078125,-14.6484375,-43.45703125
123.7734375,-35.64453125,-17.578125,-14.6484375,-29.296875
123.77734375,-40.0390625,-25.87890625,-19.53125,-11.23046875
123.78125,-38.0859375,-28.80859375,-20.01953125,-18.5546875
123.78515625,-41.9921875,-26.3671875,-20.01953125,-35.64453125
123.7890625,-47.36328125,-28.80859375,-16.6015625,-25.390625
123.79296875,-39.0625,-32.71484375,-15.625,3.90625
123.796875,-34.66796875,-30.76171875,-16.6015625,2.44140625
123.80078125,-40.0390625,-24.90234375,-14.16015625,-20.5078125
123.8046875,-44.43359375,-27.34375,-14.16015625,-16.11328125
123.80859375,-38.57421875,-26.85546875,-14.6484375,6.34765625
123.8125,-29.296875,-22.4609375,-15.13671875,19.53125
123.81640625,-21.97265625,-21.97265625,-15.13671875,4.39453125
123.8203125,-27.34375,-25.87890625,-16.11328125,-7.32421875
123.82421875,-23.4375,-29.78515625,-17.08984375,8.7890625
123.828125,-24.90234375,-26.85546875,-18.5546875,18.06640625
123.83203125,-29.296875,-20.5078125,-24.90234375,3.90625
123.8359375,-27.83203125,-17.578125,-29.78515625,-19.53125
123.83984375,-33.203125,-19.53125,-26.85546875,-8.7890625
123.84375,-32.2265625,-21.484375,-19.04296875,17.08984375
123.84765625,-24.90234375,-20.99609375,-22.94921875,-1.46484375
123.8515625,-24.4140625,-20.5078125,-25.87890625,-20.5078125
123.85546875,-28.3203125,-22.94921875,-31.73828125,-12.20703125
123.859375,-29.296875,-26.85546875,-33.69140625,-3.41796875
123.86328125,-28.3203125,-21.484375,-26.3671875,6.8359375
123.8671875,-32.2265625,-20.01953125,-25.390625,-4.39453125
123.87109375,-38.57421875,-25.87890625,-29.296875,-21.484375
123.875,-40.52734375,-24.4140625,-28.80859375,-7.8125
123.87890625,-47.36328125,-28.80859375,-25.87890625,14.6484375
123.8828125,-44.43359375,-32.2265625,-25.390625,1.953125
123.88671875,-35.15625,-26.3671875,-30.2734375,-23.92578125
123.890625,-45.8984375,-27.83203125,-27.83203125,-8.7890625
123.89453125,-52.24609375,-32.2265625,-24.4140625,-1.953125
123.8984375,-34.66796875,-27.83203125,-22.94921875,-11.71875
123.90234375,-25.390625,-23.92578125,-20.01953125,-27.34375
123.90625,-36.1328125,-24.4140625,-20.99609375,-32.2265625
123.91015625,-41.9921875,-23.4375,-18.5546875,-9.27734375
123.9140625,-38.0859375,-25.87890625,-20.01953125,-9.765625
123.91796875,-44.43359375,-31.25,-22.94921875,-32.2265625
123.921875,-38.57421875,-26.3671875,-18.06640625,-38.57421875
123.92578125,-25.87890625,-19.04296875,-18.06640625,-27.34375
123.9296875,-18.06640625,-18.5546875,-21.484375,-18.06640625
123.93359375,-29.78515625,-22.94921875,-26.3671875,-31.25
123.9375,-40.0390625,-18.5546875,-24.4140625,-45.41015625
123.94140625,-34.1796875,-18.5546875,-16.6015625,-27.83203125
123.9453125,-39.55078125,-21.484375,-15.625,-6.34765625
123.94921875,-39.0625,-21.97265625,-19.53125,-24.90234375
123.953125,-38.57421875,-27.34375,-20.5078125,-47.8515625
123.95703125,-46.875,-33.203125,-21.97265625,-32.2265625
123.9609375,-42.96875,-34.1796875,-22.4609375,-4.8828125
123.96484375,-45.41015625,-34.66796875,-23.4375,-13.671875
123.96875,-46.875,-33.69140625,-24.90234375,-30.2734375
123.97265625,-22.94921875,-22.4609375,-18.06640625,-21.484375
123.9765625,-27.83203125,-22.4609375,-20.99609375,-15.13671875
123.98046875,-33.203125,-26.85546875,-27.83203125,-22.4609375
123.984375,-29.78515625,-26.3671875,-27.83203125,-31.73828125
123.98828125,-34.66796875,-23.4375,-25.87890625,-29.78515625
123.9921875,-31.73828125,-22.4609375,-25.390625,-15.625
123.99609375,-28.80859375,-23.4375,-23.92578125,-15.13671875
124.0,-23.4375,-23.92578125,-20.5078125,-35.64453125
124.00390625,-26.3671875,-22.4609375,-20.5078125,-45.41015625
124.0078125,-31.25,-18.06640625,-24.4140625,-37.59765625
124.01171875,-21.97265625,-20.01953125,-29.78515625,-33.69140625
124.015625,-19.04296875,-22.94921875,-39.0625,-29.78515625
124.01953125,-17.578125,-20.5078125,-40.52734375,-28.3203125
124.0234375,-13.18359375,-18.06640625,-21.97265625,-11.71875
124.02734375,-37.109375,-26.85546875,-17.578125,-13.18359375
124.03125,-57.12890625,-35.64453125,-24.4140625,-34.1796875
124.03515625,-57.12890625,-39.55078125,-22.4609375,-32.71484375
124.0390625,-62.01171875,-45.41015625,-17.08984375,-34.66796875
124.04296875,-61.03515625,-55.17578125,-13.671875,-31.73828125
124.046875,-62.5,-58.59375,-12.20703125,-24.4140625
124.05078125,-66.89453125,-59.5703125,-6.8359375,-24.90234375
124.0546875,-64.453125,-66.40625,-7.32421875,-40.0390625
124.05859375,-63.96484375,-69.82421875,-10.25390625,-38.57421875
124.0625,-61.5234375,-69.3359375,-3.90625,-20.01953125
124.06640625,-58.59375,-72.265625,-2.44140625,-30.2734375
124.0703125,-70.3125,-74.70703125,-9.765625,-37.109375
124.07421875,-70.80078125,-75.68359375,-5.859375,-6.8359375
124.078125,-61.5234375,-74.21875,-0.9765625,21.97265625
124.08203125,-51.7578125,-63.96484375,-5.37109375,4.39453125
124.0859375,-55.17578125,-58.59375,-8.7890625,-15.13671875
124.08984375,-61.03515625,-65.91796875,-9.27734375,-3.41796875
124.09375,-61.03515625,-67.87109375,-8.30078125,7.8125
124.09765625,-53.7109375,-66.40625,-8.7890625,-2.44140625
124.1015625,-54.6875,-64.94140625,-11.71875,-16.11328125
124.10546875,-67.3828125,-65.91796875,-13.18359375,-6.34765625
124.109375,-65.4296875,-65.4296875,-13.671875,8.7890625
124.11328125,-55.17578125,-55.6640625,-14.6484375,6.8359375
124.1171875,-47.36328125,-55.6640625,-13.671875,-6.34765625
124.12109375,-55.17578125,-54.6875,-18.5546875,-14.16015625
124.125,-59.08203125,-48.33984375,-23.92578125,-2.44140625
124.12890625,-41.50390625,-41.50390625,-20.5078125,20.01953125
124.1328125,-27.83203125,-40.0390625,-18.5546875,11.23046875
124.13671875,-31.25,-44.43359375,-19.04296875,-9.27734375
124.140625,-36.1328125,-41.50390625,-18.06640625,-4.39453125
124.14453125,-35.64453125,-36.1328125,-17.08984375,13.671875
124.1484375,-30.76171875,-36.1328125,-19.53125,2.44140625
124.15234375,-29.78515625,-36.1328125,-24.4140625,-24.4140625
124.15625,-34.66796875,-36.62109375,-21.484375,-24.90234375
124.16015625,-21.97265625,-34.1796875,-22.94921875,-2.44140625
124.1640625,-12.6953125,-30.76171875,-25.87890625,-0.9765625
124.16796875,-37.109375,-36.62109375,-22.4609375,-12.20703125
124.171875,-32.2265625,-38.57421875,-15.13671875,2.9296875
124.17578125,-21.97265625,-32.71484375,-14.6484375,13.671875
124.1796875,-13.18359375,-29.296875,-15.13671875,22.4609375
124.18359375,-4.8828125,-30.76171875,-16.11328125,3.41796875
124.1875,-21.97265625,-28.3203125,-17.578125,-11.23046875
124.19140625,-33.203125,-26.3671875,-13.18359375,15.13671875
124.1953125,-33.69140625,-30.2734375,-12.20703125,19.53125
124.19921875,-34.66796875,-33.69140625,-17.08984375,1.953125
124.203125,-44.43359375,-32.71484375,-18.5546875,-23.4375
124.20703125,-48.33984375,-28.3203125,-15.625,-26.3671875
124.2109375,-42.48046875,-27.83203125,-22.4609375,-4.8828125
124.21484375,-34.66796875,-26.85546875,-20.99609375,0.9765625
124.21875,-41.015625,-27.83203125,-23.4375,-27.83203125
124.22265625,-46.38671875,-29.78515625,-28.3203125,-39.0625
124.2265625,-39.55078125,-21.97265625,-21.97265625,-12.20703125
124.23046875,-27.34375,-21.484375,-26.3671875,-5.859375
124.234375,-39.55078125,-24.4140625,-24.90234375,-14.6484375
124.23828125,-58.59375,-25.390625,-20.5078125,-20.5078125
124.2421875,-43.45703125,-27.34375,-23.92578125,-19.53125
124.24609375,-24.90234375,-26.3671875,-22.94921875,-13.18359375
124.25,-31.73828125,-22.94921875,-19.53125,-23.4375
124.25390625,-37.109375,-24.90234375,-22.94921875,-35.15625
124.2578125,-36.1328125,-26.85546875,-26.3671875,-25.390625
124.26171875,-31.25,-24.4140625,-25.390625,-14.6484375
124.265625,-29.78515625,-20.5078125,-24.90234375,-16.6015625
124.26953125,-34.66796875,-19.53125,-19.53125,-33.203125
124.2734375,-39.0625,-20.99609375,-19.53125,-47.36328125
124.27734375,-48.33984375,-23.4375,-24.90234375,-34.1796875
124.28125,-44.43359375,-22.94921875,-21.484375,-20.5078125
124.28515625,-41.9921875,-20.01953125,-16.6015625,-33.203125
124.2890625,-51.7578125,-25.390625,-18.5546875,-43.45703125
124.29296875,-37.109375,-22.4609375,-21.484375,-31.25
124.296875,-20.99609375,-20.99609375,-26.3671875,-21.484375
124.30078125,-32.2265625,-21.97265625,-24.4140625,-34.1796875
124.3046875,-33.69140625,-18.06640625,-22.4609375,-46.875
124.30859375,-24.90234375,-18.5546875,-22.94921875,-39.0625
124.3125,-35.15625,-20.01953125,-21.97265625,-17.578125
124.31640625,-32.2265625,-18.5546875,-21.97265625,-22.4609375
124.3203125,-21.484375,-19.53125,-20.5078125,-33.69140625
124.32421875,-32.2265625,-22.94921875,-19.04296875,-17.08984375
124.328125,-33.69140625,-21.484375,-19.04296875,-10.7421875
124.33203125,-20.99609375,-21.97265625,-16.6015625,-31.73828125
124.3359375,-25.87890625,-22.94921875,-19.53125,-46.875
124.33984375,-26.3671875,-24.4140625,-20.99609375,-35.15625
124.34375,-28.3203125,-22.94921875,-20.01953125,-20.99609375
124.34765625,-35.15625,-24.90234375,-25.390625,-23.92578125
124.3515625,-37.109375,-23.92578125,-30.2734375,-44.921875
124.35546875,-47.36328125,-16.6015625,-27.34375,-51.26953125
124.359375,-37.59765625,-23.92578125,-21.484375,-29.296875
124.36328125,-23.4375,-28.3203125,-19.53125,-22.94921875
124.3671875,-35.64453125,-20.01953125,-23.4375,-33.69140625
124.37109375,-41.9921875,-19.53125,-22.4609375,-39.0625
124.375,-20.99609375,-21.484375,-21.484375,-30.2734375
124.37890625,-13.18359375,-16.6015625,-24.90234375,-17.578125
124.3828125,-23.92578125,-18.06640625,-25.87890625,-19.53125
124.38671875,-25.87890625,-17.08984375,-26.85546875,-37.109375
124.390625,-29.78515625,-17.578125,-24.90234375,-31.25
124.39453125,-22.94921875,-20.01953125,-24.4140625,-8.7890625
124.3984375,-19.53125,-17.578125,-25.87890625,-3.90625
124.40234375,-34.1796875,-19.53125,-26.85546875,-19.53125
124.40625,-28.80859375,-19.04296875,-27.34375,-20.5078125
124.41015625,-17.08984375,-18.5546875,-27.34375,-11.23046875
124.4140625,-19.04296875,-20.5078125,-22.4609375,-14.6484375
124.41796875,-22.4609375,-18.5546875,-22.4609375,-21.97265625
124.421875,-31.25,-18.06640625,-26.85546875,-20.01953125
124.42578125,-22.94921875,-20.01953125,-22.94921875,-10.25390625
124.4296875,-14.6484375,-24.4140625,-26.3671875,-17.08984375
124.43359375,-20.99609375,-26.3671875,-34.1796875,-28.3203125
124.4375,-19.53125,-25.390625,-27.83203125,-43.45703125
124.44140625,-24.4140625,-25.390625,-21.97265625,-20.5078125
124.4453125,-26.3671875,-25.390625,-27.34375,5.859375
124.44921875,-25.390625,-20.99609375,-33.203125,-17.578125
124.453125,-38.0859375,-17.578125,-32.2265625,-39.0625
124.45703125,-32.71484375,-19.53125,-28.80859375,-33.203125
124.4609375,-5.37109375,-15.625,-30.2734375,-18.5546875
124.46484375,-16.6015625,-18.5546875,-28.3203125,-24.90234375
124.46875,-33.203125,-23.4375,-17.578125,-31.25
124.47265625,-14.16015625,-19.53125,-16.11328125,-21.97265625
124.4765625,-23.92578125,-23.92578125,-21.97265625,-2.44140625
124.48046875,-32.71484375,-30.2734375,-18.5546875,1.953125
124.484375,-27.83203125,-31.73828125,-10.7421875,-8.30078125
124.48828125,-28.3203125,-33.69140625,-16.11328125,-26.3671875
124.4921875,-27.34375,-29.78515625,-18.5546875,-11.23046875
124.49609375,-25.87890625,-23.92578125,-11.23046875,11.71875
124.5,-23.4375,-29.78515625,-17.578125,4.8828125
124.50390625,-34.1796875,-34.66796875,-22.4609375,-5.37109375
124.5078125,-41.50390625,-31.25,-26.3671875,-8.7890625
124.51171875,-23.92578125,-30.2734375,-32.2265625,-4.8828125
124.515625,-10.25390625,-27.34375,-23.92578125,-0.48828125
124.51953125,-13.18359375,-27.83203125,-13.671875,-13.671875
124.5234375,-14.16015625,-29.78515625,-20.99609375,-19.53125
124.52734375,-16.11328125,-30.76171875,-28.3203125,1.46484375
124.53125,-16.11328125,-26.85546875,-27.83203125,12.6953125
124.53515625,-11.71875,-24.90234375,-26.3671875,-1.953125
124.5390625,-19.04296875,-25.390625,-20.5078125,0.0
124.54296875,-19.04296875,-20.5078125,-20.99609375,10.25390625
124.546875,-3.90625,-20.01953125,-21.484375,5.859375
124.55078125,-8.30078125,-25.87890625,-16.6015625,0.0
124.5546875,-13.18359375,-25.87890625,-12.20703125,6.8359375
124.55859375,-6.8359375,-25.390625,-12.20703125,24.90234375
124.5625,-6.34765625,-24.4140625,-19.04296875,27.83203125
124.56640625,-5.859375,-14.16015625,-11.23046875,23.4375
124.5703125,-20.5078125,-18.06640625,-16.11328125,5.859375
124.57421875,-30.2734375,-29.78515625,-24.90234375,-1.46484375
124.578125,-20.5078125,-28.3203125,-19.53125,8.30078125
124.58203125,-19.04296875,-21.484375,-20.5078125,-3.90625
124.5859375,-24.90234375,-20.99609375,-20.5078125,-19.53125
124.58984375,-21.97265625,-30.2734375,-24.90234375,-8.7890625
124.59375,-10.7421875,-25.87890625,-20.99609375,13.671875
124.59765625,-2.44140625,-22.94921875,-16.11328125,7.8125
124.6015625,-17.578125,-27.83203125,-21.484375,-25.87890625
124.60546875,-28.80859375,-19.04296875,-21.97265625,-42.48046875
124.609375,-6.8359375,-12.6953125,-16.11328125,-10.25390625
124.61328125,7.32421875,-9.765625,-13.671875,6.8359375
124.6171875,2.44140625,-9.765625,-16.6015625,-9.765625
124.62109375,-1.953125,-19.53125,-17.08984375,-8.7890625
124.625,-10.25390625,-20.99609375,-19.04296875,-7.8125
124.62890625,-12.20703125,-15.625,-19.53125,-2.44140625
124.6328125,-21.484375,-16.6015625,-19.04296875,-4.8828125
124.63671875,-21.97265625,-20.01953125,-15.625,-17.08984375
124.640625,-16.6015625,-23.92578125,-10.7421875,-10.7421875
124.64453125,-11.23046875,-20.99609375,-12.20703125,-3.41796875
124.6484375,-1.953125,-18.5546875,-10.7421875,0.48828125
124.65234375,-0.48828125,-25.390625,-10.7421875,-5.859375
124.65625,-15.13671875,-26.3671875,-13.671875,-19.53125
124.66015625,-23.4375,-21.484375,-14.16015625,-0.48828125
124.6640625,-24.4140625,-22.94921875,-20.99609375,5.37109375
124.66796875,-19.53125,-22.94921875,-26.85546875,-18.06640625
124.671875,-15.625,-22.94921875,-20.99609375,-32.2265625
124.67578125,-17.08984375,-21.484375,-20.5078125,-20.5078125
124.6796875,-17.578125,-17.578125,-19.53125,-1.46484375
124.68359375,-19.04296875,-17.08984375,-16.6015625,-5.859375
124.6875,-23.92578125,-18.5546875,-20.99609375,-15.13671875
124.69140625,-29.296875,-19.04296875,-18.5546875,-8.30078125
124.6953125,-22.94921875,-20.99609375,-14.16015625,10.25390625
124.69921875,-23.4375,-22.94921875,-18.06640625,-1.953125
124.703125,-29.296875,-19.53125,-17.08984375,-24.90234375
124.70703125,-26.3671875,-19.53125,-18.5546875,-12.6953125
124.7109375,-20.01953125,-26.85546875,-23.92578125,-6.8359375
124.71484375,-14.16015625,-28.80859375,-24.4140625,-9.765625
124.71875,-28.3203125,-24.90234375,-23.92578125,-17.08984375
124.72265625,-32.71484375,-22.94921875,-15.13671875,-9.765625
124.7265625,-29.78515625,-20.5078125,-10.25390625,5.859375
124.73046875,-30.76171875,-19.04296875,-15.625,-1.953125
124.734375,-20.01953125,-21.97265625,-21.484375,-21.484375
124.73828125,-20.99609375,-25.87890625,-21.97265625,-28.80859375
124.7421875,-22.4609375,-26.3671875,-20.01953125,-11.23046875
124.74609375,-12.20703125,-22.4609375,-13.671875,10.7421875
124.75,-13.671875,-24.4140625,-16.11328125,-10.7421875
124.75390625,-24.4140625,-20.99609375,-23.92578125,-28.80859375
124.7578125,-15.625,-20.01953125,-26.3671875,-16.6015625
124.76171875,-17.08984375,-28.3203125,-31.25,-7.8125
124.765625,-32.71484375,-29.296875,-28.80859375,-5.37109375
124.76953125,-36.1328125,-30.76171875,-27.34375,-20.01953125
124.7734375,-23.4375,-30.76171875,-26.3671875,-12.20703125
124.77734375,-25.87890625,-31.25,-20.99609375,10.7421875
124.78125,-34.1796875,-32.71484375,-23.92578125,2.44140625
124.78515625,-24.4140625,-24.90234375,-24.90234375,-20.01953125
124.7890625,-28.80859375,-21.97265625,-21.484375,-16.11328125
124.79296875,-28.80859375,-24.90234375,-14.6484375,15.13671875
124.796875,-18.5546875,-20.5078125,-12.6953125,13.671875
124.80078125,-26.3671875,-20.5078125,-16.11328125,-20.99609375
124.8046875,-40.0390625,-26.85546875,-18.5546875,-22.4609375
124.80859375,-42.96875,-31.25,-20.5078125,-9.27734375
124.8125,-30.2734375,-26.85546875,-21.97265625,-12.6953125
124.81640625,-19.04296875,-22.4609375,-24.4140625,-13.18359375
124.8203125,-34.1796875,-23.92578125,-22.4609375,-15.625
124.82421875,-40.0390625,-27.34375,-15.13671875,-12.6953125
124.828125,-17.578125,-31.25,-10.7421875,18.06640625
124.83203125,-17.578125,-25.87890625,-14.16015625,14.16015625
124.8359375,-44.43359375,-21.97265625,-17.08984375,-31.73828125
124.83984375,-54.19921875,-23.4375,-18.06640625,-37.109375
124.84375,-58.10546875,-24.90234375,-19.53125,-9.765625
124.84765625,-70.80078125,-25.390625,-19.04296875,-18.06640625
124.8515625,-72.75390625,-23.4375,-21.97265625,-53.7109375
124.85546875,-90.33203125,-26.85546875,-26.85546875,-89.84375
124.859375,-93.26171875,-31.73828125,-26.3671875,-88.8671875
124.86328125,-75.68359375,-32.2265625,-26.3671875,-73.73046875
124.8671875,-78.125,-33.203125,-27.83203125,-81.54296875
124.87109375,-86.42578125,-32.2265625,-34.1796875,-85.44921875
124.875,-79.1015625,-29.78515625,-34.66796875,-71.77734375
124.87890625,-63.96484375,-29.78515625,-34.66796875,-50.29296875
124.8828125,-54.19921875,-27.83203125,-38.57421875,-54.6875
124.88671875,-48.33984375,-25.87890625,-34.66796875,-66.40625
124.890625,-54.19921875,-19.04296875,-24.4140625,-44.921875
124.89453125,-45.41015625,-16.11328125,-20.01953125,-22.4609375
124.8984375,-34.66796875,-20.99609375,-26.3671875,-37.109375
124.90234375,-45.41015625,-22.4609375,-29.78515625,-48.828125
124.90625,-37.59765625,-23.92578125,-27.34375,-42.48046875
124.91015625,-36.1328125,-24.4140625,-25.390625,-34.1796875
124.9140625,-40.0390625,-21.484375,-27.34375,-22.4609375
124.91796875,-35.64453125,-25.390625,-29.296875,-33.69140625
124.921875,-47.36328125,-23.4375,-27.34375,-46.875
124.92578125,-47.8515625,-22.4609375,-23.4375,-23.4375
124.9296875,-39.55078125,-27.34375,-26.3671875,-3.90625
124.93359375,-42.96875,-29.296875,-27.83203125,-19.04296875
124.9375,-39.55078125,-29.78515625,-24.4140625,-35.64453125
124.94140625,-38.57421875,-29.296875,-24.90234375,-32.2265625
124.9453125,-23.4375,-25.390625,-24.90234375,-5.859375
124.94921875,-20.01953125,-28.3203125,-26.3671875,-14.6484375
124.953125,-36.62109375,-29.296875,-23.92578125,-39.0625
124.95703125,-25.390625,-23.92578125,-17.08984375,-27.83203125
124.9609375,-16.11328125,-25.390625,-18.5546875,-12.6953125
124.96484375,-30.76171875,-31.25,-26.85546875,-14.6484375
124.96875,-44.43359375,-30.76171875,-27.83203125,-23.92578125
124.97265625,-40.0390625,-28.3203125,-23.4375,-24.4140625
124.9765625,-20.01953125,-26.3671875,-23.4375,-13.18359375
124.98046875,-30.2734375,-26.3671875,-22.94921875,-9.27734375
124.984375,-47.36328125,-20.5078125,-21.484375,-21.484375
124.98828125,-34.1796875,-16.6015625,-14.16015625,-20.99609375
124.9921875,-25.87890625,-18.06640625,-13.18359375,-7.8125
124.99609375,-29.78515625,-22.4609375,-19.53125,0.0
125.0,-28.3203125,-26.3671875,-20.5078125,-20.5078125
125.00390625,-33.69140625,-25.390625,-22.4609375,-36.1328125
125.0078125,-36.62109375,-25.390625,-21.484375,-31.73828125
125.01171875,-24.90234375,-21.97265625,-17.08984375,-9.27734375
125.015625,-18.06640625,-19.04296875,-14.16015625,-4.8828125
125.01953125,-30.2734375,-20.99609375,-11.23046875,-33.69140625
125.0234375,-25.87890625,-27.83203125,-5.859375,-21.97265625
125.02734375,-15.625,-26.85546875,-8.7890625,-2.44140625
125.03125,-23.92578125,-18.06640625,-23.4375,-10.7421875
125.03515625,-34.66796875,-6.34765625,-27.34375,-36.1328125
125.0390625,-39.55078125,-2.44140625,-28.3203125,-42.48046875
125.04296875,-31.73828125,-0.48828125,-32.71484375,-37.59765625
125.046875,-23.4375,7.8125,-31.73828125,-58.59375
125.05078125,-19.04296875,13.671875,-34.66796875,-86.42578125
125.0546875,-29.296875,17.08984375,-40.52734375,-88.8671875
125.05859375,-31.25,14.6484375,-41.50390625,-67.87109375
125.0625,-24.90234375,21.97265625,-40.0390625,-54.19921875
125.06640625,-15.625,36.62109375,-41.015625,-65.91796875
125.0703125,-11.23046875,38.57421875,-42.96875,-72.265625
125.07421875,-6.8359375,30.2734375,-44.43359375,-53.7109375
125.078125,6.34765625,36.1328125,-45.8984375,-45.41015625
125.08203125,15.625,41.50390625,-47.8515625,-59.08203125
125.0859375,9.27734375,34.1796875,-46.38671875,-52.734375
125.08984375,0.48828125,31.73828125,-36.62109375,-31.73828125
125.09375,6.34765625,26.85546875,-35.64453125,-28.80859375
125.09765625,15.13671875,25.390625,-40.0390625,-28.3203125
125.1015625,10.7421875,27.34375,-40.52734375,-33.69140625
125.10546875,3.90625,23.92578125,-36.1328125,-38.0859375
125.109375,6.34765625,19.53125,-31.73828125,-23.4375
125.11328125,16.11328125,21.97265625,-25.87890625,-8.30078125
125.1171875,19.53125,18.5546875,-22.94921875,-11.23046875
125.12109375,-0.48828125,9.27734375,-27.83203125,-19.04296875
125.125,-10.25390625,8.7890625,-28.3203125,-24.4140625
125.12890625,0.9765625,9.27734375,-22.94921875,-20.99609375
125.1328125,-1.46484375,2.9296875,-20.99609375,-12.6953125
125.13671875,-18.06640625,-2.9296875,-24.4140625,-22.94921875
125.140625,-10.25390625,-0.48828125,-21.484375,-26.3671875
125.14453125,0.9765625,1.953125,-19.04296875,-7.32421875
125.1484375,-11.23046875,-3.90625,-18.06640625,-4.8828125
125.15234375,-6.34765625,-6.8359375,-19.53125,-28.80859375
125.15625,-4.39453125,-3.41796875,-20.01953125,-26.3671875
125.16015625,-11.23046875,-4.8828125,-18.5546875,-6.34765625
125.1640625,-13.18359375,-10.25390625,-18.5546875,-8.30078125
125.16796875,-7.8125,-13.18359375,-17.578125,-19.04296875
125.171875,-10.7421875,-14.6484375,-14.16015625,-17.08984375
125.17578125,-15.13671875,-15.625,-17.08984375,-11.71875
125.1796875,-9.27734375,-18.5546875,-16.11328125,-7.32421875
125.18359375,-5.859375,-19.53125,-13.18359375,-20.01953125
125.1875,-8.7890625,-17.08984375,-14.16015625,-37.59765625
125.19140625,-14.16015625,-19.04296875,-16.11328125,-25.390625
125.1953125,-20.01953125,-20.01953125,-18.5546875,-19.04296875
125.19921875,-29.78515625,-23.4375,-21.484375,-22.94921875
125.203125,-21.484375,-18.5546875,-13.671875,-22.94921875
125.20703125,-3.90625,-15.13671875,-11.23046875,-26.85546875
125.2109375,-8.7890625,-18.06640625,-16.6015625,-10.25390625
125.21484375,-18.5546875,-15.13671875,-20.01953125,1.46484375
125.21875,-28.80859375,-18.5546875,-23.4375,-26.85546875
125.22265625,-32.71484375,-14.6484375,-19.53125,-38.57421875
125.2265625,-28.3203125,-14.16015625,-20.99609375,-24.4140625
125.23046875,-24.4140625,-18.5546875,-24.4140625,-5.37109375
125.234375,-17.578125,-17.578125,-29.296875,-19.04296875
125.23828125,-21.484375,-22.4609375,-34.1796875,-36.62109375
125.2421875,-30.76171875,-28.80859375,-30.2734375,-21.484375
125.24609375,-25.87890625,-24.90234375,-31.25,-12.20703125
125.25,-26.3671875,-21.97265625,-31.25,-4.39453125
125.25390625,-36.62109375,-21.97265625,-28.80859375,-17.08984375
125.2578125,-23.4375,-20.01953125,-24.4140625,-29.78515625
125.26171875,-17.578125,-20.01953125,-22.94921875,-14.16015625
125.265625,-23.92578125,-17.578125,-24.4140625,-17.08984375
125.26953125,-24.90234375,-20.01953125,-21.97265625,-32.2265625
125.2734375,-10.25390625,-21.484375,-21.97265625,-25.87890625
125.27734375,-9.765625,-20.5078125,-24.90234375,-14.16015625
125.28125,-18.06640625,-22.4609375,-22.94921875,1.46484375
125.28515625,-19.04296875,-23.4375,-20.5078125,-10.7421875
125.2890625,-15.13671875,-24.4140625,-20.01953125,-41.50390625
125.29296875,-7.8125,-22.94921875,-13.671875,-29.78515625
125.296875,-0.48828125,-18.5546875,-12.6953125,-10.25390625
125.30078125,-20.5078125,-21.484375,-12.20703125,-16.11328125
125.3046875,-36.62109375,-26.85546875,-14.16015625,-25.87890625
125.30859375,-19.53125,-20.01953125,-22.4609375,-24.4140625
125.3125,-12.20703125,-17.08984375,-21.484375,-7.8125
125.31640625,-24.4140625,-19.04296875,-18.5546875,-5.859375
125.3203125,-33.203125,-17.578125,-20.99609375,-24.4140625
125.32421875,-20.99609375,-21.484375,-26.85546875,-21.97265625
125.328125,-17.578125,-26.85546875,-30.2734375,-9.27734375
125.33203125,-24.90234375,-19.04296875,-21.484375,-3.41796875
125.3359375,-18.5546875,-18.5546875,-16.11328125,-8.30078125
125.33984375,-20.5078125,-18.06640625,-23.4375,-10.25390625
125.34375,-18.5546875,-16.11328125,-20.01953125,4.39453125
125.34765625,-16.11328125,-19.04296875,-13.18359375,0.9765625
125.3515625,-14.16015625,-14.16015625,-17.08984375,-22.94921875
125.35546875,-16.6015625,-17.578125,-21.484375,-20.5078125
125.359375,-26.85546875,-21.97265625,-21.97265625,-5.859375
125.36328125,-8.7890625,-14.16015625,-16.11328125,-4.8828125
125.3671875,-10.25390625,-17.578125,-18.5546875,-12.20703125
125.37109375,-29.78515625,-18.5546875,-28.3203125,-23.92578125
125.375,-18.06640625,-12.20703125,-27.34375,-7.8125
125.37890625,-15.13671875,-20.5078125,-22.4609375,2.44140625
125.3828125,-16.11328125,-22.4609375,-29.296875,-5.859375
125.38671875,-24.4140625,-18.06640625,-32.2265625,-15.13671875
125.390625,-26.85546875,-20.01953125,-30.76171875,-19.53125
125.39453125,-27.34375,-22.4609375,-33.69140625,-2.9296875
125.3984375,-21.484375,-23.4375,-37.59765625,6.34765625
125.40234375,-26.85546875,-25.390625,-27.83203125,-1.953125
125.40625,-44.43359375,-22.94921875,-23.4375,-18.06640625
125.41015625,-34.66796875,-14.6484375,-23.4375,-6.8359375
125.4140625,-25.87890625,-20.01953125,-25.87890625,-0.9765625
125.41796875,-33.203125,-26.85546875,-28.3203125,-20.99609375
125.421875,-34.66796875,-23.92578125,-27.34375,-29.296875
125.42578125,-31.25,-20.99609375,-28.3203125,-16.11328125
125.4296875,-27.34375,-20.5078125,-25.390625,1.46484375
125.43359375,-28.3203125,-23.92578125,-28.3203125,-16.6015625
125.4375,-20.01953125,-21.97265625,-27.83203125,-22.4609375
125.44140625,-12.6953125,-18.5546875,-25.390625,0.0
125.4453125,-20.01953125,-17.08984375,-25.390625,1.46484375
125.44921875,-16.11328125,-20.01953125,-21.97265625,-13.671875
125.453125,-15.625,-23.92578125,-21.484375,-27.83203125
125.45703125,-18.06640625,-22.94921875,-27.83203125,-20.99609375
125.4609375,-12.6953125,-25.390625,-30.76171875,-5.859375
125.46484375,-10.25390625,-28.3203125,-31.25,-12.20703125
125.46875,-26.3671875,-25.390625,-32.2265625,-20.99609375
125.47265625,-24.90234375,-24.90234375,-32.71484375,-27.34375
125.4765625,-16.6015625,-28.80859375,-30.2734375,-19.53125
125.48046875,-32.2265625,-26.3671875,-24.4140625,0.0
125.484375,-33.69140625,-27.34375,-25.390625,-6.8359375
125.48828125,-30.76171875,-30.2734375,-24.90234375,-28.80859375
125.4921875,-24.4140625,-25.87890625,-24.90234375,-14.6484375
125.49609375,-15.13671875,-20.5078125,-25.390625,-3.90625
125.5,-19.04296875,-15.625,-24.4140625,-14.6484375
125.50390625,-23.4375,-16.11328125,-21.97265625,-13.18359375
125.5078125,-20.99609375,-17.578125,-22.4609375,-2.44140625
125.51171875,-12.20703125,-18.5546875,-26.3671875,2.44140625
125.515625,-8.30078125,-17.08984375,-22.4609375,-8.30078125
125.51953125,-24.4140625,-17.08984375,-21.97265625,-23.92578125
125.5234375,-23.4375,-18.06640625,-24.4140625,-22.4609375
125.52734375,-20.01953125,-18.5546875,-22.4609375,-5.859375
125.53125,-12.6953125,-20.5078125,-20.5078125,-5.859375
125.53515625,-18.5546875,-20.99609375,-22.94921875,-26.3671875
125.5390625,-34.66796875,-19.53125,-24.4140625,-31.73828125
125.54296875,-26.3671875,-17.08984375,-19.53125,-22.94921875
125.546875,-20.5078125,-16.11328125,-21.97265625,-21.484375
125.55078125,-20.99609375,-15.13671875,-24.90234375,-39.0625
125.5546875,-26.3671875,-17.578125,-28.80859375,-50.78125
125.55859375,-16.11328125,-18.5546875,-29.296875,-24.4140625
125.5625,-13.671875,-17.578125,-17.578125,-1.953125
125.56640625,-24.90234375,-19.04296875,-16.6015625,-6.34765625
125.5703125,-19.04296875,-20.01953125,-19.53125,-20.5078125
125.57421875,-10.25390625,-16.6015625,-16.11328125,-19.53125
125.578125,-16.11328125,-18.06640625,-17.08984375,4.39453125
125.58203125,-21.484375,-13.671875,-16.6015625,-7.8125
125.5859375,-15.13671875,-10.25390625,-21.97265625,-35.64453125
125.58984375,-23.4375,-10.7421875,-26.3671875,-23.4375
125.59375,-26.85546875,-10.25390625,-22.4609375,-17.578125
125.59765625,-25.390625,-12.20703125,-21.97265625,-25.87890625
125.6015625,-13.671875,-12.6953125,-26.85546875,-47.36328125
125.60546875,-9.27734375,-14.16015625,-24.4140625,-46.875
125.609375,-27.34375,-17.578125,-20.99609375,-25.390625
125.61328125,-34.66796875,-14.6484375,-22.94921875,-19.04296875
125.6171875,-31.73828125,-12.20703125,-25.87890625,-32.2265625
125.62109375,-22.4609375,-12.6953125,-28.3203125,-46.875
125.625,-17.08984375,-9.765625,-29.78515625,-39.0625
125.62890625,-18.06640625,-6.8359375,-27.34375,-22.94921875
125.6328125,-26.85546875,-14.6484375,-23.92578125,-36.62109375
125.63671875,-22.94921875,-16.6015625,-28.3203125,-64.94140625
125.640625,-19.04296875,-14.16015625,-30.2734375,-49.8046875
125.64453125,-20.99609375,-16.11328125,-24.4140625,-21.97265625
125.6484375,-17.578125,-18.06640625,-23.4375,-21.97265625
125.65234375,-13.671875,-14.6484375,-22.4609375,-29.296875
125.65625,-12.20703125,-13.671875,-17.08984375,-29.296875
125.66015625,-10.7421875,-15.625,-17.578125,-17.578125
125.6640625,-13.671875,-14.16015625,-22.4609375,-3.90625
125.66796875,-23.92578125,-17.08984375,-15.625,-1.46484375
125.671875,-25.87890625,-17.578125,-18.06640625,-22.4609375
125.67578125,-12.6953125,-12.6953125,-24.4140625,-27.83203125
125.6796875,-25.87890625,-15.13671875,-20.01953125,-10.25390625
125.68359375,-50.29296875,-17.08984375,-21.484375,-22.4609375
125.6875,-50.29296875,-17.578125,-21.484375,-38.0859375
125.69140625,-39.0625,-19.04296875,-15.13671875,-32.2265625
125.6953125,-26.3671875,-16.11328125,-11.23046875,-29.296875
125.69921875,-30.76171875,-20.5078125,-18.06640625,-27.34375
125.703125,-26.85546875,-16.6015625,-16.11328125,-23.92578125
125.70703125,-14.16015625,-11.23046875,-12.6953125,-25.390625
125.7109375,-14.16015625,-21.484375,-22.4609375,-16.6015625
125.71484375,-4.39453125,-18.5546875,-20.5078125,-10.7421875
125.71875,-10.25390625,-15.625,-18.06640625,-33.203125
125.72265625,-26.85546875,-20.5078125,-16.11328125,-21.97265625
125.7265625,-14.6484375,-19.53125,-15.13671875,1.46484375
125.73046875,-7.32421875,-16.11328125,-20.5078125,-13.18359375
125.734375,-16.6015625,-10.25390625,-20.5078125,-28.3203125
125.73828125,-18.5546875,-13.18359375,-20.5078125,-30.2734375
125.7421875,-38.57421875,-20.01953125,-23.4375,-28.80859375
125.74609375,-45.8984375,-20.5078125,-24.4140625,-18.5546875
125.75,-28.3203125,-15.13671875,-18.5546875,-15.625
125.75390625,-41.9921875,-17.08984375,-12.20703125,-27.34375
125.7578125,-48.828125,-20.99609375,-15.625,-24.90234375
125.76171875,-38.0859375,-21.484375,-18.5546875,-9.27734375
125.765625,-35.15625,-23.4375,-15.625,-9.27734375
125.76953125,-28.80859375,-27.83203125,-16.6015625,-35.64453125
125.7734375,-27.83203125,-24.90234375,-16.11328125,-24.4140625
125.77734375,-37.59765625,-20.99609375,-15.625,-3.90625
125.78125,-30.76171875,-26.85546875,-15.13671875,-22.94921875
125.78515625,-28.3203125,-24.4140625,-11.23046875,-39.0625
125.7890625,-34.1796875,-19.53125,-15.13671875,-33.69140625
125.79296875,-33.69140625,-24.90234375,-14.6484375,-11.23046875
125.796875,-30.76171875,-26.3671875,-12.6953125,-5.859375
125.80078125,-33.69140625,-19.04296875,-16.6015625,-20.99609375
125.8046875,-33.203125,-15.625,-11.23046875,-17.578125
125.80859375,-26.3671875,-16.11328125,-16.11328125,-3.90625
125.8125,-24.4140625,-20.01953125,-21.484375,-4.39453125
125.81640625,-23.92578125,-23.92578125,-16.6015625,-18.5546875
125.8203125,-30.76171875,-27.34375,-18.5546875,-26.3671875
125.82421875,-46.38671875,-27.34375,-19.53125,-23.92578125
125.828125,-42.96875,-25.87890625,-20.99609375,-9.27734375
125.83203125,-34.66796875,-25.87890625,-14.6484375,-7.32421875
125.8359375,-43.45703125,-29.78515625,-13.18359375,-30.76171875
125.83984375,-53.22265625,-32.2265625,-20.99609375,-37.59765625
125.84375,-42.96875,-25.87890625,-20.99609375,-25.87890625
125.84765625,-24.90234375,-29.296875,-20.99609375,-16.6015625
125.8515625,-35.15625,-28.80859375,-25.87890625,-26.85546875
125.85546875,-38.57421875,-23.92578125,-25.87890625,-30.2734375
125.859375,-26.85546875,-29.296875,-26.3671875,-16.6015625
125.86328125,-29.296875,-26.85546875,-25.390625,-1.46484375
125.8671875,-37.59765625,-26.85546875,-21.484375,-12.20703125
125.87109375,-32.2265625,-27.83203125,-22.4609375,-28.3203125
125.875,-26.85546875,-19.53125,-19.04296875,-20.5078125
125.87890625,-26.85546875,-13.18359375,-17.08984375,-6.34765625
125.8828125,-27.83203125,-21.97265625,-24.90234375,-17.578125
125.88671875,-29.78515625,-26.85546875,-27.34375,-37.109375
125.890625,-29.78515625,-22.94921875,-24.4140625,-36.1328125
125.89453125,-21.97265625,-25.87890625,-22.94921875,-28.80859375
125.8984375,-20.01953125,-29.78515625,-23.4375,-27.34375
125.90234375,-19.53125,-26.3671875,-26.3671875,-46.875
125.90625,-22.94921875,-23.92578125,-24.90234375,-45.41015625
125.91015625,-25.87890625,-25.87890625,-24.4140625,-16.6015625
125.9140625,-16.11328125,-30.2734375,-23.92578125,-10.7421875
125.91796875,-36.1328125,-27.83203125,-23.92578125,-27.83203125
125.921875,-36.1328125,-25.390625,-19.53125,-33.203125
125.92578125,-22.94921875,-24.90234375,-16.6015625,-17.578125
125.9296875,-29.78515625,-25.390625,-22.94921875,-7.8125
125.93359375,-31.25,-28.80859375,-26.85546875,-30.76171875
125.9375,-41.50390625,-28.80859375,-29.296875,-55.6640625
125.94140625,-49.8046875,-27.83203125,-24.90234375,-33.69140625
125.9453125,-45.41015625,-26.85546875,-23.4375,-21.484375
125.94921875,-31.25,-25.390625,-30.76171875,-38.57421875
125.953125,-38.0859375,-27.83203125,-28.80859375,-53.7109375
125.95703125,-41.50390625,-28.80859375,-21.97265625,-41.50390625
125.9609375,-12.20703125,-23.92578125,-20.99609375,-13.671875
125.96484375,-21.97265625,-23.92578125,-28.3203125,-21.484375
125.96875,-53.22265625,-30.2734375,-28.3203125,-40.52734375
125.97265625,-42.96875,-21.97265625,-22.94921875,-35.15625
125.9765625,-29.296875,-21.97265625,-26.3671875,-25.87890625
125.98046875,-35.64453125,-30.76171875,-30.2734375,-28.3203125
125.984375,-41.50390625,-27.34375,-28.3203125,-34.1796875
125.98828125,-41.9921875,-25.87890625,-24.90234375,-25.87890625
125.9921875,-33.69140625,-26.85546875,-24.4140625,-20.01953125
125.99609375,-20.99609375,-28.3203125,-31.25,-27.83203125
126.0,-29.78515625,-30.2734375,-29.78515625,-30.2734375
126.00390625,-38.0859375,-26.85546875,-22.94921875,-37.59765625
126.0078125,-43.9453125,-27.83203125,-23.92578125,-41.015625
126.01171875,-39.0625,-30.2734375,-31.73828125,-26.3671875
126.015625,-6.34765625,-27.34375,-28.80859375,-28.3203125
126.01953125,-1.953125,-26.3671875,-28.80859375,-50.78125
126.0234375,-22.4609375,-23.4375,-37.59765625,-49.31640625
126.02734375,-9.27734375,-21.484375,-33.69140625,-20.99609375
126.03125,-2.44140625,-19.53125,-24.90234375,-17.578125
126.03515625,-30.76171875,-27.34375,-20.01953125,-29.78515625
126.0390625,-42.96875,-35.15625,-15.625,-26.85546875
126.04296875,-43.9453125,-38.0859375,-14.16015625,-26.85546875
126.046875,-57.6171875,-45.41015625,-16.11328125,-54.19921875
126.05078125,-82.03125,-54.6875,-13.671875,-69.82421875
126.0546875,-98.6328125,-66.40625,-14.16015625,-78.125
126.05859375,-83.984375,-68.359375,-11.23046875,-61.5234375
126.0625,-90.33203125,-70.3125,-3.90625,-31.73828125
126.06640625,-102.05078125,-76.171875,-6.8359375,-39.0625
126.0703125,-106.4453125,-76.171875,-5.859375,-63.4765625
126.07421875,-112.79296875,-82.51953125,-4.39453125,-63.96484375
126.078125,-100.5859375,-91.30859375,-4.8828125,-36.1328125
126.08203125,-111.328125,-97.16796875,-0.9765625,-37.109375
126.0859375,-121.58203125,-104.00390625,-5.859375,-52.734375
126.08984375,-112.79296875,-105.95703125,-9.27734375,-38.57421875
126.09375,-107.91015625,-106.93359375,-7.8125,-25.87890625
126.09765625,-100.5859375,-107.91015625,-9.765625,-32.2265625
126.1015625,-93.26171875,-107.421875,-12.6953125,-36.62109375
126.10546875,-91.30859375,-106.4453125,-17.578125,-42.48046875
126.109375,-78.61328125,-90.33203125,-13.671875,-26.3671875
126.11328125,-55.17578125,-74.70703125,0.0,-5.859375
126.1171875,-53.22265625,-79.1015625,-2.9296875,-5.859375
126.12109375,-65.91796875,-77.1484375,-9.765625,-10.7421875
126.125,-56.640625,-68.84765625,-7.8125,-4.8828125
126.12890625,-35.64453125,-67.87109375,-1.953125,6.8359375
126.1328125,-37.59765625,-66.40625,-0.9765625,-0.48828125
126.13671875,-40.0390625,-67.3828125,-4.39453125,-4.39453125
126.140625,-36.1328125,-61.5234375,-8.30078125,-0.9765625
126.14453125,-40.0390625,-53.22265625,-6.34765625,9.27734375
126.1484375,-43.45703125,-55.17578125,-11.23046875,0.9765625
126.15234375,-41.9921875,-55.6640625,-19.53125,-22.4609375
126.15625,-37.59765625,-48.33984375,-13.671875,-16.11328125
126.16015625,-32.71484375,-45.8984375,-11.23046875,13.18359375
126.1640625,-30.76171875,-51.26953125,-17.578125,20.01953125
126.16796875,-32.2265625,-49.8046875,-22.4609375,-6.8359375
126.171875,-37.59765625,-46.38671875,-20.99609375,-21.97265625
126.17578125,-26.3671875,-46.38671875,-18.5546875,3.41796875
126.1796875,-23.4375,-41.015625,-16.6015625,27.34375
126.18359375,-19.04296875,-41.015625,-14.6484375,17.08984375
126.1875,-15.13671875,-41.015625,-15.13671875,1.953125
126.19140625,-25.390625,-37.109375,-16.11328125,5.859375
126.1953125,-27.83203125,-38.0859375,-20.01953125,6.8359375
126.19921875,-18.5546875,-36.1328125,-20.5078125,4.8828125
126.203125,-20.5078125,-34.66796875,-18.5546875,0.9765625
126.20703125,-18.5546875,-34.1796875,-15.13671875,2.9296875
126.2109375,-11.23046875,-34.66796875,-14.6484375,17.578125
126.21484375,-17.08984375,-39.55078125,-21.484375,14.16015625
126.21875,-26.3671875,-41.50390625,-25.390625,-9.765625
126.22265625,-34.66796875,-39.0625,-25.390625,-16.6015625
126.2265625,-32.71484375,-36.1328125,-24.4140625,-3.90625
126.23046875,-27.83203125,-38.0859375,-21.97265625,5.859375
126.234375,-26.3671875,-32.2265625,-22.94921875,-2.9296875
126.23828125,-24.4140625,-31.73828125,-25.390625,-13.18359375
126.2421875,-26.3671875,-33.69140625,-27.83203125,1.953125
126.24609375,-23.4375,-32.2265625,-23.92578125,9.765625
126.25,-23.92578125,-30.76171875,-21.97265625,-9.765625
126.25390625,-31.25,-26.85546875,-20.99609375,-18.06640625
126.2578125,-24.4140625,-30.2734375,-17.578125,-1.953125
126.26171875,-15.625,-28.3203125,-18.5546875,14.6484375
126.265625,-14.16015625,-26.85546875,-23.4375,12.20703125
126.26953125,-18.06640625,-34.1796875,-24.90234375,-13.671875
126.2734375,-13.18359375,-31.73828125,-19.53125,-10.25390625
126.27734375,-20.01953125,-24.90234375,-19.04296875,5.37109375
126.28125,-34.1796875,-28.80859375,-19.53125,-17.578125
126.28515625,-30.76171875,-30.2734375,-20.99609375,-33.69140625
126.2890625,-28.3203125,-28.80859375,-24.4140625,-32.2265625
126.29296875,-39.55078125,-32.2265625,-26.3671875,-18.5546875
126.296875,-35.15625,-27.83203125,-21.97265625,-11.23046875
126.30078125,-26.3671875,-20.99609375,-24.90234375,-19.53125
126.3046875,-36.1328125,-25.390625,-20.99609375,-26.85546875
126.30859375,-41.50390625,-28.3203125,-16.11328125,-19.53125
126.3125,-34.66796875,-24.90234375,-25.390625,-10.7421875
126.31640625,-34.66796875,-28.3203125,-24.4140625,-3.41796875
126.3203125,-38.57421875,-33.69140625,-20.01953125,-15.625
126.32421875,-41.50390625,-34.66796875,-23.92578125,-40.52734375
126.328125,-37.59765625,-31.25,-19.53125,-30.2734375
126.33203125,-29.296875,-23.92578125,-17.08984375,-20.5078125
126.3359375,-32.2265625,-19.53125,-21.97265625,-25.390625
126.33984375,-25.390625,-20.01953125,-25.87890625,-30.2734375
126.34375,-19.04296875,-22.4609375,-24.4140625,-22.4609375
126.34765625,-29.78515625,-23.92578125,-21.97265625,-26.85546875
126.3515625,-29.296875,-25.87890625,-22.94921875,-43.45703125
126.35546875,-23.4375,-21.484375,-18.06640625,-39.55078125
126.359375,-32.71484375,-19.53125,-18.5546875,-20.01953125
126.36328125,-26.85546875,-24.4140625,-21.484375,-4.8828125
126.3671875,-18.06640625,-23.92578125,-15.13671875,-20.01953125
126.37109375,-29.296875,-22.4609375,-14.16015625,-30.76171875
126.375,-29.296875,-19.53125,-14.6484375,-15.625
126.37890625,-25.87890625,-17.578125,-10.7421875,-8.7890625
126.3828125,-24.4140625,-21.484375,-16.11328125,-14.6484375
126.38671875,-30.2734375,-23.4375,-20.01953125,-26.85546875
126.390625,-30.2734375,-23.4375,-17.08984375,-16.6015625
126.39453125,-16.6015625,-23.4375,-13.671875,3.90625
126.3984375,-5.37109375,-24.4140625,-17.578125,-5.37109375
126.40234375,-21.97265625,-24.90234375,-20.99609375,-11.71875
126.40625,-44.43359375,-19.53125,-14.16015625,-11.23046875
126.41015625,-35.64453125,-19.04296875,-17.578125,-17.08984375
126.4140625,-18.5546875,-21.484375,-24.4140625,-8.7890625
126.41796875,-19.53125,-24.90234375,-25.390625,-18.5546875
126.421875,-19.04296875,-18.06640625,-18.5546875,-15.13671875
126.42578125,-17.578125,-15.13671875,-16.11328125,11.23046875
126.4296875,-19.04296875,-14.16015625,-18.5546875,15.625
126.43359375,-10.25390625,-11.23046875,-14.16015625,17.578125
126.4375,-16.11328125,-19.53125,-15.13671875,-2.44140625
126.44140625,-24.4140625,-20.01953125,-16.11328125,-13.671875
126.4453125,-18.06640625,-17.578125,-15.625,-1.46484375
126.44921875,-19.04296875,-21.484375,-18.5546875,-1.953125
126.453125,-20.5078125,-22.4609375,-19.53125,-17.578125
126.45703125,-16.6015625,-20.01953125,-16.6015625,-16.6015625
126.4609375,-25.390625,-21.484375,-17.08984375,9.27734375
126.46484375,-29.78515625,-21.484375,-20.99609375,-2.44140625
126.46875,-29.78515625,-25.87890625,-22.94921875,-33.203125
126.47265625,-20.99609375,-20.01953125,-17.578125,-28.80859375
126.4765625,-21.97265625,-17.578125,-11.71875,-8.7890625
126.48046875,-20.99609375,-26.85546875,-16.6015625,-0.48828125
126.484375,-30.2734375,-31.25,-17.578125,-21.484375
126.48828125,-44.921875,-37.59765625,-9.765625,-21.97265625
126.4921875,-21.97265625,-35.15625,-10.25390625,-0.9765625
126.49609375,2.44140625,-19.04296875,-17.578125,1.46484375
126.5,-16.6015625,-13.18359375,-23.92578125,-22.4609375
126.50390625,-43.45703125,-13.18359375,-28.80859375,-51.26953125
126.5078125,-41.9921875,-3.90625,-28.80859375,-44.921875
126.51171875,-31.25,2.44140625,-27.34375,-23.92578125
126.515625,-18.5546875,9.765625,-27.34375,-40.0390625
126.51953125,-14.16015625,19.04296875,-33.69140625,-67.87109375
126.5234375,-19.04296875,27.34375,-35.64453125,-65.91796875
126.52734375,-16.11328125,28.80859375,-37.59765625,-64.94140625
126.53125,1.46484375,27.83203125,-35.64453125,-62.98828125
126.53515625,-5.859375,37.109375,-39.0625,-64.94140625
126.5390625,-16.11328125,41.015625,-41.015625,-73.73046875
126.54296875,-3.41796875,38.57421875,-40.0390625,-56.15234375
126.546875,0.9765625,41.50390625,-47.36328125,-37.109375
126.55078125,10.25390625,46.875,-45.8984375,-52.734375
126.5546875,13.671875,49.8046875,-37.109375,-64.94140625
126.55859375,17.08984375,56.15234375,-36.62109375,-57.12890625
126.5625,31.73828125,54.6875,-41.015625,-46.875
126.56640625,34.66796875,50.29296875,-42.96875,-35.64453125
126.5703125,26.3671875,45.41015625,-40.0390625,-43.45703125
126.57421875,15.13671875,37.59765625,-33.69140625,-37.109375
126.578125,18.06640625,35.15625,-31.25,-13.18359375
126.58203125,18.5546875,37.109375,-29.296875,-13.671875
126.5859375,15.13671875,35.64453125,-29.78515625,-24.90234375
126.58984375,17.08984375,29.296875,-31.73828125,-20.5078125
126.59375,20.99609375,29.296875,-27.34375,0.9765625
126.59765625,26.85546875,26.85546875,-21.97265625,8.7890625
126.6015625,21.484375,24.4140625,-23.4375,-13.671875
126.60546875,14.16015625,20.01953125,-23.4375,-19.53125
126.609375,17.578125,13.18359375,-22.4609375,-6.8359375
126.61328125,18.06640625,13.671875,-24.4140625,6.8359375
126.6171875,6.8359375,9.27734375,-25.87890625,-8.7890625
126.62109375,-3.90625,-0.9765625,-33.203125,-31.73828125
126.625,-2.9296875,-0.48828125,-31.73828125,-17.578125
126.62890625,5.37109375,0.48828125,-27.83203125,-3.90625
126.6328125,18.5546875,-2.9296875,-34.66796875,-3.90625
126.63671875,5.859375,-4.8828125,-30.76171875,-4.8828125
126.640625,-7.32421875,-9.27734375,-26.85546875,-7.8125
126.64453125,6.34765625,-10.25390625,-25.87890625,7.8125
126.6484375,9.765625,-9.27734375,-21.97265625,9.27734375
126.65234375,19.53125,-6.8359375,-25.390625,-15.625
126.65625,13.671875,-9.765625,-25.390625,-20.5078125
126.66015625,-9.765625,-15.13671875,-21.97265625,0.9765625
126.6640625,3.90625,-14.16015625,-20.99609375,15.625
126.66796875,7.32421875,-14.6484375,-18.5546875,8.7890625
126.671875,0.48828125,-13.671875,-18.5546875,0.48828125
126.67578125,-1.953125,-13.671875,-20.5078125,-6.34765625
126.6796875,-0.9765625,-18.06640625,-20.5078125,-4.8828125
126.68359375,0.0,-20.99609375,-20.99609375,-9.765625
126.6875,-2.44140625,-20.01953125,-21.97265625,-23.92578125
126.69140625,0.9765625,-13.18359375,-18.06640625,-2.9296875
126.6953125,10.25390625,-9.765625,-16.6015625,15.13671875
126.69921875,24.4140625,-11.23046875,-24.4140625,3.41796875
126.703125,11.71875,-11.71875,-21.484375,-10.7421875
126.70703125,-12.6953125,-15.13671875,-18.06640625,-0.9765625
126.7109375,-14.6484375,-16.6015625,-18.06640625,8.7890625
126.71484375,-7.8125,-13.18359375,-18.06640625,-4.8828125
126.71875,-6.8359375,-12.6953125,-20.01953125,-18.06640625
126.72265625,-10.25390625,-15.625,-16.6015625,-24.4140625
126.7265625,-7.8125,-18.5546875,-16.11328125,-9.765625
126.73046875,-3.41796875,-21.97265625,-18.06640625,18.06640625
126.734375,-6.8359375,-19.04296875,-20.01953125,-3.41796875
126.73828125,-19.04296875,-14.6484375,-20.99609375,-15.625
126.7421875,-14.16015625,-22.94921875,-19.53125,-9.765625
126.74609375,-10.7421875,-28.80859375,-22.94921875,-14.16015625
126.75,-26.85546875,-29.78515625,-23.4375,-17.578125
126.75390625,-37.109375,-30.2734375,-20.5078125,-26.3671875
126.7578125,-38.57421875,-27.34375,-21.484375,-26.3671875
126.76171875,-28.3203125,-24.4140625,-23.92578125,-21.97265625
126.765625,-20.01953125,-25.87890625,-24.4140625,-25.87890625
126.76953125,-28.80859375,-25.87890625,-25.390625,-28.3203125
126.7734375,-43.45703125,-26.3671875,-26.3671875,-27.34375
126.77734375,-40.0390625,-24.4140625,-26.85546875,-13.18359375
126.78125,-25.390625,-21.484375,-25.390625,1.46484375
126.78515625,-25.390625,-28.3203125,-27.34375,-24.4140625
126.7890625,-30.76171875,-28.3203125,-27.34375,-45.41015625
126.79296875,-17.578125,-20.01953125,-27.34375,-33.69140625
126.796875,-16.6015625,-22.4609375,-31.25,-23.92578125
126.80078125,-30.76171875,-29.78515625,-32.71484375,-19.04296875
126.8046875,-34.66796875,-31.25,-29.296875,-20.5078125
126.80859375,-26.3671875,-26.3671875,-26.85546875,-23.4375
126.8125,-26.85546875,-25.87890625,-32.2265625,-16.6015625
126.81640625,-32.2265625,-25.390625,-33.203125,-26.85546875
126.8203125,-25.87890625,-26.3671875,-27.34375,-44.43359375
126.82421875,-17.08984375,-24.4140625,-29.78515625,-31.73828125
126.828125,-5.37109375,-23.4375,-25.87890625,-1.953125
126.83203125,-14.16015625,-26.85546875,-18.06640625,-0.48828125
126.8359375,-35.15625,-29.296875,-25.390625,-26.3671875
126.83984375,-40.0390625,-30.2734375,-26.85546875,-22.4609375
126.84375,-36.62109375,-28.80859375,-20.99609375,2.9296875
126.84765625,-30.76171875,-29.78515625,-27.83203125,-13.18359375
126.8515625,-44.43359375,-28.80859375,-31.25,-28.3203125
126.85546875,-52.24609375,-27.83203125,-25.87890625,-31.25
126.859375,-33.69140625,-25.390625,-20.01953125,-14.16015625
126.86328125,-26.3671875,-24.4140625,-19.53125,-4.39453125
126.8671875,-25.87890625,-30.2734375,-26.3671875,-25.87890625
126.87109375,-31.73828125,-31.25,-26.3671875,-24.4140625
126.875,-34.66796875,-29.78515625,-22.4609375,-20.99609375
126.87890625,-28.3203125,-29.296875,-21.484375,-14.6484375
126.8828125,-31.73828125,-32.2265625,-20.99609375,-20.01953125
126.88671875,-38.0859375,-30.2734375,-19.53125,-40.52734375
126.890625,-33.69140625,-23.92578125,-18.5546875,-36.1328125
126.89453125,-25.390625,-21.97265625,-21.484375,-26.85546875
126.8984375,-32.71484375,-21.484375,-17.08984375,-16.11328125
126.90234375,-33.69140625,-23.92578125,-18.06640625,-17.578125
126.90625,-29.78515625,-25.87890625,-23.4375,-18.06640625
126.91015625,-23.4375,-21.97265625,-19.04296875,0.0
126.9140625,-17.578125,-21.97265625,-18.5546875,-2.44140625
126.91796875,-21.97265625,-25.87890625,-19.53125,-10.7421875
126.921875,-26.85546875,-25.87890625,-14.16015625,-11.71875
126.92578125,-17.08984375,-24.4140625,-10.7421875,0.9765625
126.9296875,-18.5546875,-22.4609375,-20.01953125,-5.859375
126.93359375,-36.1328125,-17.08984375,-27.34375,-37.59765625
126.9375,-38.0859375,-18.5546875,-30.2734375,-53.22265625
126.94140625,-41.50390625,-18.5546875,-28.80859375,-41.9921875
126.9453125,-37.109375,-14.6484375,-28.80859375,-29.78515625
126.94921875,-29.78515625,-13.671875,-41.015625,-55.17578125
126.953125,-38.0859375,-15.13671875,-40.52734375,-71.2890625
126.95703125,-40.52734375,-12.6953125,-33.203125,-52.734375
126.9609375,-36.62109375,-11.23046875,-33.203125,-31.25
126.96484375,-33.69140625,-11.71875,-31.73828125,-37.59765625
126.96875,-33.203125,-17.08984375,-33.203125,-54.19921875
126.97265625,-17.08984375,-17.578125,-35.64453125,-54.19921875
126.9765625,-32.2265625,-13.671875,-36.1328125,-37.109375
126.98046875,-37.59765625,-14.6484375,-33.203125,-23.4375
126.984375,-15.625,-11.71875,-28.80859375,-37.59765625
126.98828125,-20.5078125,-12.20703125,-28.80859375,-56.640625
126.9921875,-31.25,-14.16015625,-29.78515625,-28.80859375
126.99609375,-30.76171875,-15.625,-31.73828125,-22.4609375
127.0,-13.18359375,-17.578125,-28.3203125,-41.50390625
127.00390625,-16.11328125,-16.6015625,-28.80859375,-48.828125
127.0078125,-19.04296875,-20.5078125,-33.203125,-42.48046875
127.01171875,-4.8828125,-18.5546875,-29.296875,-27.34375
127.015625,-19.04296875,-16.6015625,-24.90234375,-25.87890625
127.01953125,-20.01953125,-20.99609375,-22.4609375,-29.296875
127.0234375,-20.99609375,-11.71875,-24.4140625,-30.76171875
127.02734375,-36.62109375,-7.8125,-23.4375,-16.11328125
127.03125,-22.94921875,-15.13671875,-21.484375,-8.7890625
127.03515625,-19.04296875,-16.11328125,-25.390625,-28.3203125
127.0390625,-25.390625,-17.578125,-27.83203125,-29.78515625
127.04296875,-18.06640625,-21.484375,-24.90234375,-4.39453125
127.046875,-7.8125,-19.04296875,-18.06640625,-2.9296875
127.05078125,-7.8125,-15.625,-18.5546875,-21.484375
127.0546875,-10.7421875,-16.6015625,-22.94921875,-26.3671875
127.05859375,-8.7890625,-17.578125,-20.01953125,-22.94921875
127.0625,-4.8828125,-14.6484375,-16.6015625,-21.97265625
127.06640625,-16.11328125,-19.53125,-15.625,-16.6015625
127.0703125,-30.76171875,-23.4375,-12.6953125,-25.390625
127.07421875,-25.390625,-19.04296875,-17.08984375,-37.109375
127.078125,-18.06640625,-15.625,-17.08984375,-23.4375
127.08203125,-28.80859375,-10.7421875,-14.16015625,-14.16015625
127.0859375,-37.109375,-16.11328125,-21.484375,-21.97265625
127.08984375,-32.2265625,-21.484375,-28.3203125,-47.36328125
127.09375,-26.3671875,-19.53125,-21.97265625,-36.1328125
127.09765625,-12.20703125,-15.13671875,-13.18359375,-12.20703125
127.1015625,-9.27734375,-12.20703125,-16.11328125,-24.4140625
127.10546875,-16.11328125,-13.671875,-20.01953125,-38.57421875
127.109375,-22.4609375,-10.25390625,-18.5546875,-28.80859375
127.11328125,-36.1328125,-8.30078125,-18.06640625,-12.20703125
127.1171875,-36.62109375,-14.6484375,-21.97265625,-29.78515625
127.12109375,-35.15625,-20.01953125,-24.90234375,-44.921875
127.125,-30.76171875,-20.5078125,-23.92578125,-37.59765625
127.12890625,-21.97265625,-20.01953125,-20.5078125,-18.06640625
127.1328125,-32.71484375,-20.5078125,-20.5078125,-15.625
127.13671875,-31.25,-20.01953125,-24.90234375,-30.76171875
127.140625,-21.484375,-20.5078125,-24.4140625,-28.3203125
127.14453125,-18.5546875,-20.01953125,-22.94921875,-22.94921875
127.1484375,-19.04296875,-21.97265625,-21.484375,-29.296875
127.15234375,-21.484375,-22.94921875,-25.87890625,-37.59765625
127.15625,-27.83203125,-25.87890625,-24.90234375,-38.0859375
127.16015625,-33.203125,-27.83203125,-18.06640625,-15.13671875
127.1640625,-29.78515625,-29.78515625,-17.08984375,-9.27734375
127.16796875,-23.92578125,-27.83203125,-17.08984375,-33.69140625
127.171875,-20.01953125,-24.90234375,-22.94921875,-53.7109375
127.17578125,-14.6484375,-23.92578125,-17.08984375,-44.921875
127.1796875,-3.90625,-23.92578125,-13.671875,-28.80859375
127.18359375,-3.41796875,-20.99609375,-17.08984375,-32.2265625
127.1875,-25.87890625,-20.99609375,-14.6484375,-37.109375
127.19140625,-28.3203125,-22.4609375,-13.671875,-21.97265625
127.1953125,-14.6484375,-24.90234375,-12.20703125,4.8828125
127.19921875,-13.18359375,-25.87890625,-18.06640625,-10.7421875
127.203125,-25.390625,-22.4609375,-23.92578125,-45.41015625
127.20703125,-30.2734375,-26.3671875,-21.97265625,-37.59765625
127.2109375,-21.97265625,-25.87890625,-20.99609375,-8.7890625
127.21484375,-26.3671875,-25.390625,-24.90234375,-16.6015625
127.21875,-27.34375,-27.34375,-30.2734375,-36.1328125
127.22265625,-27.34375,-28.80859375,-23.4375,-31.25
127.2265625,-20.99609375,-26.3671875,-18.06640625,-23.92578125
127.23046875,-11.71875,-26.85546875,-20.99609375,-19.53125
127.234375,-26.3671875,-33.69140625,-21.97265625,-36.62109375
127.23828125,-19.04296875,-26.3671875,-23.92578125,-51.26953125
127.2421875,-14.16015625,-27.34375,-28.80859375,-48.33984375
127.24609375,-33.203125,-35.15625,-25.87890625,-26.3671875
127.25,-33.69140625,-29.78515625,-22.4609375,-26.85546875
127.25390625,-35.15625,-23.4375,-26.85546875,-47.36328125
127.2578125,-31.73828125,-24.90234375,-19.53125,-46.875
127.26171875,-17.08984375,-28.80859375,-16.6015625,-35.15625
127.265625,-12.6953125,-29.296875,-21.97265625,-30.76171875
127.26953125,-21.97265625,-27.83203125,-17.578125,-43.9453125
127.2734375,-27.34375,-26.3671875,-10.25390625,-34.66796875
127.27734375,-25.87890625,-28.80859375,-15.13671875,-20.01953125
127.28125,-16.6015625,-28.80859375,-20.5078125,-20.5078125
127.28515625,-21.484375,-23.4375,-18.06640625,-22.4609375
127.2890625,-26.3671875,-25.87890625,-18.5546875,-28.3203125
127.29296875,-17.08984375,-29.78515625,-20.99609375,-13.671875
127.296875,-19.53125,-29.78515625,-22.94921875,0.0
127.30078125,-28.3203125,-26.85546875,-21.97265625,-20.5078125
127.3046875,-41.015625,-28.3203125,-22.94921875,-34.1796875
127.30859375,-28.80859375,-25.390625,-25.87890625,-34.66796875
127.3125,-17.578125,-20.5078125,-23.4375,-38.57421875
127.31640625,-22.4609375,-23.4375,-24.90234375,-33.203125
127.3203125,-14.6484375,-22.4609375,-25.390625,-28.80859375
127.32421875,-6.34765625,-19.04296875,-15.625,-37.109375
127.328125,-12.6953125,-22.94921875,-15.625,-44.921875
127.33203125,-31.25,-20.01953125,-21.97265625,-36.1328125
127.3359375,-41.9921875,-16.6015625,-24.90234375,-42.48046875
127.33984375,-35.64453125,-20.01953125,-26.85546875,-48.828125
127.34375,-30.2734375,-20.99609375,-22.4609375,-24.4140625
127.34765625,-31.25,-23.4375,-25.390625,-24.90234375
127.3515625,-27.83203125,-32.2265625,-33.203125,-42.96875
127.35546875,-43.9453125,-34.66796875,-32.2265625,-36.62109375
127.359375,-62.01171875,-30.76171875,-24.90234375,-25.390625
127.36328125,-35.64453125,-30.76171875,-25.87890625,-27.83203125
127.3671875,-21.484375,-30.76171875,-26.85546875,-32.71484375
127.37109375,-30.2734375,-30.76171875,-23.4375,-48.33984375
127.375,-40.0390625,-28.80859375,-20.99609375,-45.41015625
127.37890625,-32.71484375,-24.4140625,-20.99609375,-14.16015625
127.3828125,-20.99609375,-22.94921875,-22.94921875,-9.765625
127.38671875,-19.04296875,-22.4609375,-23.4375,-25.390625
127.390625,3.41796875,-18.06640625,-26.85546875,-33.203125
127.39453125,26.85546875,-19.04296875,-34.1796875,-22.4609375
127.3984375,34.66796875,-21.484375,-26.85546875,-17.08984375
127.40234375,45.41015625,-25.390625,-16.11328125,-22.4609375
127.40625,48.828125,-31.25,-14.16015625,-23.4375
127.41015625,23.92578125,-34.1796875,-15.13671875,-33.69140625
127.4140625,1.953125,-39.55078125,-17.08984375,-28.80859375
127.41796875,-7.32421875,-43.9453125,-18.5546875,-25.390625
127.421875,-22.4609375,-53.7109375,-12.20703125,-33.203125
127.42578125,-31.25,-65.4296875,-8.7890625,-21.97265625
127.4296875,-23.92578125,-74.70703125,-15.13671875,-13.671875
127.43359375,-22.4609375,-78.61328125,-14.16015625,-34.66796875
127.4375,-31.73828125,-80.078125,-9.765625,-42.96875
127.44140625,-41.9921875,-81.0546875,-7.32421875,-33.69140625
127.4453125,-32.2265625,-87.890625,-7.8125,-11.71875
127.44921875,-43.9453125,-96.6796875,-6.34765625,-18.5546875
127.453125,-62.5,-96.19140625,-1.46484375,-38.0859375
127.45703125,-55.6640625,-99.609375,-0.48828125,-26.85546875
127.4609375,-42.48046875,-98.6328125,-1.46484375,-5.859375
127.46484375,-39.0625,-98.14453125,0.9765625,-0.48828125
127.46875,-43.45703125,-101.07421875,7.32421875,-26.3671875
127.47265625,-36.62109375,-95.703125,7.8125,-14.16015625
127.4765625,-37.109375,-101.5625,2.44140625,6.8359375
127.48046875,-57.6171875,-105.95703125,1.953125,7.8125
127.484375,-72.265625,-102.05078125,5.859375,6.34765625
127.48828125,-58.59375,-100.09765625,0.0,-11.23046875
127.4921875,-34.1796875,-90.33203125,-8.7890625,-6.8359375
127.49609375,-29.78515625,-91.796875,-4.8828125,0.9765625
127.5,-41.50390625,-93.26171875,-5.859375,-1.953125
127.50390625,-38.57421875,-82.03125,-13.671875,-8.30078125
127.5078125,-35.15625,-77.63671875,-19.04296875,-20.01953125
127.51171875,-34.66796875,-78.125,-17.08984375,-2.44140625
127.515625,-32.2265625,-69.3359375,-13.18359375,12.20703125
127.51953125,-34.1796875,-62.98828125,-13.671875,-8.7890625
127.5234375,-24.90234375,-62.01171875,-14.6484375,-19.53125
127.52734375,-22.94921875,-59.5703125,-13.671875,15.625
127.53125,-17.578125,-57.12890625,-12.20703125,25.87890625
127.53515625,-17.578125,-50.29296875,-15.625,0.48828125
127.5390625,-31.73828125,-45.8984375,-15.13671875,-11.71875
127.54296875,-33.203125,-42.48046875,-17.08984375,-7.32421875
127.546875,-24.90234375,-42.96875,-24.4140625,-6.8359375
127.55078125,-18.5546875,-43.9453125,-25.87890625,-16.6015625
127.5546875,-20.01953125,-39.55078125,-18.5546875,-13.671875
127.55859375,-19.53125,-32.2265625,-15.13671875,-4.39453125
127.5625,-16.6015625,-32.2265625,-10.25390625,20.5078125
127.56640625,-22.4609375,-31.73828125,-4.39453125,15.625
127.5703125,-21.484375,-31.25,-14.16015625,-10.25390625
127.57421875,-13.18359375,-31.25,-18.06640625,-2.9296875
127.578125,-14.6484375,-28.80859375,-20.5078125,11.71875
127.58203125,-17.578125,-27.34375,-24.90234375,9.27734375
127.5859375,-10.25390625,-27.83203125,-19.04296875,-2.44140625
127.58984375,5.37109375,-28.80859375,-17.578125,-4.39453125
127.59375,-4.8828125,-25.87890625,-17.578125,6.34765625
127.59765625,-13.671875,-24.4140625,-13.671875,22.94921875
127.6015625,-13.671875,-23.4375,-13.18359375,15.13671875
127.60546875,-9.765625,-20.99609375,-18.06640625,-4.39453125
127.609375,-7.8125,-22.94921875,-22.4609375,-8.7890625
127.61328125,-12.20703125,-25.390625,-22.4609375,-9.27734375
127.6171875,-7.8125,-20.99609375,-19.04296875,-11.71875
127.62109375,-16.6015625,-21.97265625,-20.99609375,-26.85546875
127.625,-23.4375,-26.85546875,-25.390625,-20.99609375
127.62890625,-7.32421875,-27.83203125,-22.4609375,-2.9296875
127.6328125,-2.44140625,-26.85546875,-18.5546875,-20.5078125
127.63671875,-20.99609375,-26.3671875,-24.90234375,-29.78515625
127.640625,-25.390625,-20.99609375,-25.87890625,-20.5078125
127.64453125,-16.6015625,-16.11328125,-20.01953125,-2.9296875
127.6484375,-18.5546875,-22.94921875,-18.5546875,7.32421875
127.65234375,-24.90234375,-29.296875,-19.53125,-4.39453125
127.65625,-21.97265625,-22.4609375,-12.20703125,0.0
127.66015625,-18.06640625,-18.5546875,-6.34765625,10.25390625
127.6640625,-18.5546875,-22.94921875,-12.20703125,6.34765625
127.66796875,-11.71875,-19.04296875,-19.53125,-9.27734375
127.671875,-17.578125,-22.4609375,-17.578125,-14.16015625
127.67578125,-24.4140625,-29.296875,-13.18359375,-2.9296875
127.6796875,-12.20703125,-23.92578125,-13.671875,5.859375
127.68359375,5.37109375,-20.5078125,-17.578125,3.90625
127.6875,1.46484375,-19.53125,-17.578125,-0.48828125
127.69140625,-12.20703125,-19.04296875,-17.578125,-3.41796875
127.6953125,-13.18359375,-21.484375,-19.53125,0.0
127.69921875,-12.6953125,-24.4140625,-24.4140625,-0.48828125
127.703125,-8.7890625,-26.85546875,-29.296875,-18.5546875
127.70703125,-20.5078125,-20.99609375,-23.4375,-21.97265625
127.7109375,-20.5078125,-17.578125,-19.53125,7.8125
127.71484375,-11.71875,-23.4375,-21.484375,12.20703125
127.71875,-14.6484375,-27.34375,-25.87890625,-19.53125
127.72265625,-14.16015625,-22.94921875,-23.4375,-15.13671875
127.7265625,-11.23046875,-21.97265625,-16.11328125,1.953125
127.73046875,-5.37109375,-20.01953125,-14.6484375,-3.41796875
127.734375,-13.671875,-17.578125,-15.625,-14.6484375
127.73828125,-22.4609375,-15.625,-17.578125,-11.23046875
127.7421875,-17.578125,-15.625,-14.6484375,6.34765625
127.74609375,-11.23046875,-17.578125,-8.30078125,9.27734375
127.75,-15.13671875,-27.34375,-12.20703125,-21.97265625
127.75390625,-15.625,-27.34375,-14.16015625,-31.73828125
127.7578125,-28.80859375,-26.3671875,-15.625,-11.71875
127.76171875,-41.015625,-33.69140625,-19.04296875,-8.30078125
127.765625,-33.203125,-33.203125,-16.11328125,-12.6953125
127.76953125,-33.203125,-28.80859375,-11.23046875,-23.92578125
127.7734375,-33.203125,-27.34375,-11.23046875,-43.9453125
127.77734375,-32.2265625,-27.83203125,-17.08984375,-39.0625
127.78125,-12.6953125,-28.80859375,-18.06640625,-23.4375
127.78515625,1.953125,-26.3671875,-14.6484375,-22.4609375
127.7890625,-26.3671875,-29.296875,-15.625,-23.92578125
127.79296875,-39.0625,-27.83203125,-17.08984375,-14.16015625
127.796875,-33.69140625,-23.92578125,-12.6953125,-14.16015625
127.80078125,-28.3203125,-25.87890625,-12.6953125,-28.3203125
127.8046875,-33.203125,-28.80859375,-16.11328125,-34.1796875
127.80859375,-40.52734375,-27.34375,-15.625,-12.6953125
127.8125,-22.94921875,-18.06640625,-15.13671875,-0.9765625
127.81640625,-10.25390625,-21.97265625,-24.4140625,-25.87890625
127.8203125,-31.25,-29.296875,-25.87890625,-44.43359375
127.82421875,-42.48046875,-25.87890625,-18.5546875,-28.3203125
127.828125,-41.9921875,-22.4609375,-21.97265625,-4.39453125
127.83203125,-30.2734375,-19.04296875,-26.85546875,-14.16015625
127.8359375,-24.90234375,-20.01953125,-24.90234375,-41.50390625
127.83984375,-37.109375,-22.4609375,-25.390625,-40.0390625
127.84375,-25.87890625,-15.13671875,-30.76171875,-22.94921875
127.84765625,-21.484375,-15.13671875,-29.78515625,-18.5546875
127.8515625,-24.4140625,-19.53125,-30.76171875,-27.34375
127.85546875,-23.4375,-20.99609375,-30.76171875,-40.0390625
127.859375,-14.16015625,-14.6484375,-23.92578125,-28.3203125
127.86328125,-9.27734375,-11.71875,-19.53125,-20.99609375
127.8671875,-16.6015625,-15.625,-26.3671875,-33.203125
127.87109375,-30.76171875,-20.99609375,-33.203125,-48.33984375
127.875,-35.64453125,-28.3203125,-28.80859375,-39.0625
127.87890625,-31.25,-26.85546875,-27.34375,-12.6953125
127.8828125,-30.2734375,-24.4140625,-26.85546875,-23.92578125
127.88671875,-38.57421875,-25.390625,-23.4375,-56.15234375
127.890625,-57.6171875,-23.92578125,-21.97265625,-47.36328125
127.89453125,-62.01171875,-21.484375,-17.08984375,-18.06640625
127.8984375,-52.24609375,-28.3203125,-22.4609375,-8.7890625
127.90234375,-49.31640625,-32.71484375,-32.2265625,-34.66796875
127.90625,-54.6875,-30.2734375,-24.90234375,-41.015625
