Timestamp,TP9,AF7,AF8,TP10
120.015625,-20.99609375,-20.5078125,-27.34375,-47.36328125
120.01953125,-31.25,-17.578125,-24.4140625,-42.48046875
120.0234375,-26.3671875,-11.71875,-24.4140625,-30.2734375
120.02734375,-22.94921875,-20.01953125,-25.87890625,-33.69140625
120.03125,-30.2734375,-22.94921875,-25.87890625,-40.52734375
120.03515625,-35.15625,-20.5078125,-34.1796875,-38.57421875
120.0390625,-22.4609375,-22.4609375,-26.85546875,-20.99609375
120.04296875,-13.671875,-21.484375,-19.04296875,-24.4140625
120.046875,-16.11328125,-14.6484375,-21.484375,-29.78515625
120.05078125,-12.6953125,-12.20703125,-17.578125,-24.90234375
120.0546875,-4.39453125,-17.578125,-20.99609375,-20.01953125
120.05859375,2.44140625,-24.90234375,-26.3671875,-17.08984375
120.0625,-26.85546875,-27.34375,-26.85546875,-46.875
120.06640625,-49.31640625,-22.4609375,-23.92578125,-66.40625
120.0703125,-56.15234375,-22.94921875,-21.484375,-69.82421875
120.07421875,-74.21875,-35.15625,-25.87890625,-80.078125
120.078125,-91.796875,-35.15625,-26.3671875,-94.23828125
120.08203125,-111.328125,-30.2734375,-23.4375,-124.0234375
120.0859375,-121.58203125,-40.0390625,-24.90234375,-131.8359375
120.08984375,-115.72265625,-41.015625,-26.3671875,-121.58203125
120.09375,-110.83984375,-37.59765625,-21.97265625,-128.41796875
120.09765625,-123.53515625,-41.015625,-24.90234375,-135.25390625
120.1015625,-139.16015625,-38.0859375,-23.4375,-127.9296875
120.10546875,-133.30078125,-38.57421875,-16.11328125,-123.53515625
120.109375,-116.2109375,-40.0390625,-23.92578125,-118.1640625
120.11328125,-113.28125,-32.71484375,-27.83203125,-113.28125
120.1171875,-101.5625,-31.25,-20.01953125,-103.02734375
120.12109375,-80.56640625,-38.57421875,-18.5546875,-82.51953125
120.125,-68.84765625,-34.1796875,-18.06640625,-72.75390625
120.12890625,-69.82421875,-34.1796875,-24.4140625,-76.171875
120.1328125,-66.89453125,-38.0859375,-27.83203125,-76.171875
120.13671875,-54.19921875,-31.25,-31.25,-58.59375
120.140625,-46.875,-26.3671875,-29.78515625,-53.22265625
120.14453125,-43.9453125,-27.34375,-19.53125,-57.12890625
120.1484375,-48.828125,-29.296875,-24.4140625,-48.828125
120.15234375,-55.6640625,-31.25,-34.1796875,-57.12890625
120.15625,-45.41015625,-26.85546875,-28.3203125,-59.5703125
120.16015625,-36.62109375,-28.3203125,-21.97265625,-57.12890625
120.1640625,-43.9453125,-37.109375,-28.3203125,-61.5234375
120.16796875,-49.8046875,-40.52734375,-38.0859375,-51.7578125
120.171875,-46.38671875,-38.0859375,-30.2734375,-42.48046875
120.17578125,-22.94921875,-36.1328125,-18.06640625,-31.25
120.1796875,-16.11328125,-31.25,-16.6015625,-23.4375
120.18359375,-20.99609375,-25.87890625,-16.6015625,-18.5546875
120.1875,-17.08984375,-17.578125,-20.01953125,-21.484375
120.19140625,-12.20703125,-13.671875,-21.97265625,-28.3203125
120.1953125,-21.484375,-19.04296875,-22.4609375,-31.73828125
120.19921875,-30.76171875,-16.11328125,-14.6484375,-33.203125
120.203125,-31.73828125,-19.04296875,-20.01953125,-36.62109375
120.20703125,-38.57421875,-20.01953125,-33.203125,-36.1328125
120.2109375,-28.3203125,-26.85546875,-27.83203125,-23.4375
120.21484375,-10.7421875,-28.3203125,-12.6953125,-11.23046875
120.21875,-3.90625,-14.6484375,-10.25390625,-4.39453125
120.22265625,-10.25390625,-19.04296875,-19.04296875,-8.7890625
120.2265625,-15.625,-25.87890625,-19.53125,-18.5546875
120.23046875,-20.01953125,-23.4375,-18.5546875,-22.94921875
120.234375,-19.53125,-26.85546875,-18.5546875,-20.5078125
120.23828125,-15.625,-28.80859375,-16.6015625,-13.671875
120.2421875,-18.06640625,-25.87890625,-19.53125,-20.01953125
120.24609375,-26.3671875,-24.4140625,-19.53125,-35.15625
120.25,-21.484375,-24.4140625,-15.13671875,-34.66796875
120.25390625,-6.8359375,-19.53125,-20.99609375,-12.6953125
120.2578125,-5.37109375,-18.5546875,-27.34375,-17.578125
120.26171875,-15.13671875,-19.04296875,-31.73828125,-42.48046875
120.265625,-22.94921875,-20.99609375,-31.73828125,-48.828125
120.26953125,-31.73828125,-23.4375,-24.4140625,-40.52734375
120.2734375,-44.921875,-17.578125,-24.4140625,-34.1796875
120.27734375,-47.8515625,-17.08984375,-25.390625,-51.7578125
120.28125,-48.33984375,-17.578125,-24.4140625,-62.01171875
120.28515625,-48.33984375,-20.5078125,-26.3671875,-56.640625
120.2890625,-45.8984375,-26.85546875,-22.94921875,-42.96875
120.29296875,-40.0390625,-30.2734375,-18.5546875,-35.64453125
120.296875,-46.875,-22.4609375,-21.484375,-50.29296875
120.30078125,-43.9453125,-18.5546875,-23.4375,-46.875
120.3046875,-29.78515625,-33.69140625,-18.5546875,-28.3203125
120.30859375,-23.4375,-28.80859375,-16.6015625,-23.4375
120.3125,-21.484375,-17.578125,-20.01953125,-27.34375
120.31640625,-26.3671875,-27.34375,-18.06640625,-25.390625
120.3203125,-19.04296875,-28.3203125,-17.578125,-16.6015625
120.32421875,-11.71875,-22.4609375,-23.4375,-19.04296875
120.328125,-19.04296875,-27.83203125,-25.87890625,-17.08984375
120.33203125,-20.99609375,-20.5078125,-24.90234375,-13.18359375
120.3359375,-19.04296875,-13.18359375,-25.87890625,-19.53125
120.33984375,-9.27734375,-20.5078125,-19.04296875,-24.90234375
120.34375,-10.25390625,-19.04296875,-14.16015625,-19.53125
120.34765625,-5.37109375,-18.5546875,-11.23046875,-9.765625
120.3515625,-9.765625,-28.80859375,-13.18359375,-20.99609375
120.35546875,-29.296875,-35.64453125,-27.34375,-29.78515625
120.359375,-28.80859375,-29.78515625,-30.2734375,-32.2265625
120.36328125,-25.390625,-25.87890625,-23.92578125,-26.3671875
120.3671875,-24.90234375,-18.06640625,-20.01953125,-17.08984375
120.37109375,-31.25,-19.04296875,-17.08984375,-15.13671875
120.375,-23.4375,-23.92578125,-15.625,-16.6015625
120.37890625,-10.7421875,-24.4140625,-17.08984375,-23.4375
120.3828125,-24.90234375,-28.80859375,-19.04296875,-28.3203125
120.38671875,-26.85546875,-33.203125,-16.11328125,-18.06640625
120.390625,-22.4609375,-29.296875,-21.484375,-19.53125
120.39453125,-32.71484375,-28.80859375,-24.90234375,-38.0859375
120.3984375,-24.90234375,-36.62109375,-14.6484375,-18.06640625
120.40234375,-26.3671875,-31.73828125,-17.578125,-16.6015625
120.40625,-25.87890625,-20.01953125,-17.08984375,-21.97265625
120.41015625,-13.18359375,-19.04296875,-11.71875,-19.04296875
120.4140625,-13.671875,-20.99609375,-6.34765625,-18.06640625
120.41796875,-14.16015625,-12.6953125,-4.39453125,-4.39453125
120.421875,-13.18359375,-11.23046875,-6.8359375,-12.6953125
120.42578125,-20.99609375,-22.4609375,-17.578125,-30.76171875
120.4296875,-29.78515625,-24.90234375,-21.97265625,-28.3203125
120.43359375,-24.4140625,-18.5546875,-20.01953125,-17.08984375
120.4375,-14.16015625,-20.01953125,-22.4609375,-16.11328125
120.44140625,-13.671875,-17.08984375,-20.01953125,-13.671875
120.4453125,-21.484375,-19.53125,-26.3671875,-22.94921875
120.44921875,-35.64453125,-30.2734375,-21.97265625,-38.57421875
120.453125,-35.64453125,-27.83203125,-13.671875,-28.3203125
120.45703125,-32.71484375,-17.578125,-26.3671875,-34.1796875
120.4609375,-21.484375,-19.53125,-32.71484375,-33.69140625
120.46484375,-16.11328125,-21.97265625,-13.18359375,-26.85546875
120.46875,-23.4375,-26.3671875,-10.25390625,-26.3671875
120.47265625,-14.6484375,-24.90234375,-21.484375,-20.5078125
120.4765625,-20.01953125,-20.5078125,-20.5078125,-21.484375
120.48046875,-23.92578125,-32.71484375,-18.06640625,-14.16015625
120.484375,-24.90234375,-22.94921875,-17.578125,-11.23046875
120.48828125,-41.9921875,-10.7421875,-21.484375,-41.50390625
120.4921875,-58.10546875,-22.94921875,-29.296875,-71.77734375
120.49609375,-65.4296875,-25.87890625,-35.64453125,-90.8203125
120.5,-62.01171875,-28.80859375,-25.390625,-88.8671875
120.50390625,-71.2890625,-25.390625,-28.3203125,-84.9609375
120.5078125,-70.80078125,-16.6015625,-32.2265625,-86.9140625
120.51171875,-60.05859375,-13.18359375,-26.3671875,-72.75390625
120.515625,-62.98828125,-11.23046875,-37.109375,-79.1015625
120.51953125,-57.12890625,-14.16015625,-41.50390625,-95.703125
120.5234375,-41.50390625,-14.16015625,-31.25,-83.0078125
120.52734375,-32.2265625,-16.11328125,-22.4609375,-61.03515625
120.53125,-39.55078125,-13.18359375,-20.99609375,-63.96484375
120.53515625,-45.41015625,-14.16015625,-16.6015625,-69.82421875
120.5390625,-42.96875,-27.34375,-22.94921875,-51.7578125
120.54296875,-41.015625,-11.23046875,-34.1796875,-53.22265625
120.546875,-25.87890625,-1.953125,-29.78515625,-49.31640625
120.55078125,-27.34375,-15.625,-23.92578125,-43.9453125
120.5546875,-32.71484375,-22.94921875,-25.390625,-50.29296875
120.55859375,-29.296875,-12.6953125,-26.85546875,-41.9921875
120.5625,-25.390625,-4.39453125,-24.4140625,-48.828125
120.56640625,-35.15625,-16.6015625,-29.296875,-62.5
120.5703125,-35.64453125,-29.296875,-28.3203125,-45.8984375
120.57421875,-27.34375,-22.94921875,-25.390625,-47.36328125
120.578125,-38.57421875,-21.484375,-25.390625,-61.03515625
120.58203125,-36.1328125,-25.390625,-35.15625,-57.12890625
120.5859375,-35.15625,-28.80859375,-21.97265625,-52.734375
120.58984375,-31.25,-22.4609375,-14.6484375,-38.0859375
120.59375,-20.99609375,-17.578125,-25.87890625,-46.38671875
120.59765625,-25.87890625,-21.484375,-20.99609375,-41.50390625
120.6015625,-30.76171875,-12.6953125,-23.4375,-27.34375
120.60546875,-22.4609375,-11.71875,-20.01953125,-18.06640625
120.609375,-30.76171875,-19.04296875,-12.20703125,-39.0625
120.61328125,-30.2734375,-14.16015625,-21.484375,-50.29296875
120.6171875,-8.7890625,-22.94921875,-23.4375,-24.90234375
120.62109375,-8.7890625,-27.83203125,-18.06640625,-12.6953125
120.625,-21.484375,-20.5078125,-17.08984375,-20.5078125
120.62890625,-23.4375,-10.7421875,-24.90234375,-34.66796875
120.6328125,-29.296875,-19.53125,-21.484375,-40.0390625
120.63671875,-32.2265625,-22.94921875,-16.6015625,-29.296875
120.640625,-50.29296875,-2.44140625,-19.53125,-31.25
120.64453125,-20.99609375,-19.53125,-12.20703125,-9.27734375
120.6484375,-7.32421875,-36.62109375,-1.953125,-11.23046875
120.65234375,-39.55078125,-20.99609375,-22.4609375,-32.71484375
120.65625,-23.92578125,-18.06640625,-32.71484375,-6.34765625
120.66015625,-19.04296875,-27.34375,-22.4609375,-20.99609375
120.6640625,-67.3828125,-24.4140625,-39.55078125,-56.15234375
120.66796875,-44.921875,-36.62109375,-29.78515625,-27.34375
120.671875,-16.11328125,-31.73828125,-9.27734375,-9.27734375
120.67578125,-38.0859375,-22.4609375,-15.13671875,-45.8984375
120.6796875,-21.484375,-31.25,-18.06640625,-38.0859375
120.68359375,-19.53125,-8.7890625,-17.08984375,-23.4375
120.6875,-30.76171875,-11.23046875,-25.390625,-26.3671875
120.69140625,-19.53125,-33.69140625,-28.3203125,-23.4375
120.6953125,-23.92578125,-29.296875,-17.08984375,-41.50390625
120.69921875,-50.78125,-26.3671875,-16.6015625,-65.4296875
120.703125,-30.76171875,-29.78515625,-25.87890625,-36.1328125
120.70703125,-6.8359375,-21.484375,-38.57421875,-1.953125
120.7109375,-28.3203125,-32.71484375,-18.06640625,-15.13671875
120.71484375,-23.92578125,-15.625,-16.11328125,-33.69140625
120.71875,1.953125,-20.01953125,-29.296875,-19.04296875
120.72265625,-25.390625,-41.9921875,-11.23046875,-27.83203125
120.7265625,-76.171875,-26.3671875,3.41796875,-98.6328125
120.73046875,-50.78125,-28.3203125,-11.71875,-98.6328125
120.734375,-11.23046875,-25.87890625,-45.8984375,-21.97265625
120.73828125,-55.17578125,-17.08984375,-48.33984375,-63.96484375
120.7421875,-57.12890625,-53.22265625,-5.859375,-125.0
120.74609375,-24.4140625,-12.20703125,-22.94921875,-60.05859375
120.75,-35.64453125,13.671875,-27.34375,-46.38671875
120.75390625,-20.5078125,-3.41796875,-20.01953125,-33.69140625
120.7578125,-9.27734375,-6.34765625,-29.78515625,4.8828125
120.76171875,-21.484375,-19.53125,-32.71484375,-31.73828125
120.765625,-61.5234375,-6.34765625,-27.83203125,-69.82421875
120.76953125,-45.41015625,-33.69140625,-6.34765625,-52.24609375
120.7734375,20.01953125,-42.48046875,-18.06640625,-9.27734375
120.77734375,5.37109375,-48.828125,-10.25390625,-39.0625
120.78125,-31.25,-32.71484375,-15.13671875,-47.36328125
120.78515625,-6.34765625,-23.92578125,-49.8046875,0.9765625
120.7890625,-81.0546875,-14.6484375,-21.97265625,-93.75
120.79296875,-62.5,-26.3671875,-34.1796875,-76.66015625
120.796875,-21.484375,-36.62109375,-47.8515625,-28.3203125
120.80078125,-119.62890625,-0.48828125,-30.76171875,-138.18359375
120.8046875,-72.265625,-56.640625,-8.7890625,-75.1953125
120.80859375,-8.30078125,-18.5546875,-21.484375,10.7421875
120.8125,-54.6875,-1.953125,-17.08984375,-100.5859375
120.81640625,-79.58984375,38.0859375,-28.3203125,-74.21875
120.8203125,-32.2265625,54.6875,-64.94140625,-3.90625
120.82421875,-2.9296875,-59.08203125,-26.85546875,-74.21875
120.828125,-8.7890625,-46.38671875,-17.08984375,-29.296875
120.83203125,-15.625,-21.484375,-35.15625,-14.16015625
120.8359375,-25.390625,-34.66796875,-18.5546875,-0.9765625
120.83984375,-23.92578125,-41.9921875,-4.8828125,0.0
120.84375,-11.71875,-62.98828125,-10.25390625,-22.94921875
120.84765625,-35.15625,-11.23046875,-26.3671875,16.6015625
120.8515625,-67.3828125,1.46484375,-55.6640625,-11.23046875
120.85546875,-3.90625,-38.0859375,-32.2265625,-5.37109375
120.859375,-8.30078125,16.6015625,-21.484375,2.44140625
120.86328125,-5.859375,-29.78515625,-39.55078125,35.15625
120.8671875,-15.13671875,-60.546875,-19.53125,-6.34765625
120.87109375,-32.2265625,-28.80859375,-7.8125,-94.23828125
120.875,-5.37109375,-15.13671875,-44.921875,9.765625
120.87890625,-46.875,-28.80859375,2.44140625,40.52734375
120.8828125,-66.40625,-39.55078125,11.71875,-41.50390625
120.88671875,17.578125,-61.5234375,-45.41015625,18.06640625
120.890625,13.671875,-31.25,-49.31640625,54.6875
120.89453125,-27.83203125,-42.48046875,-18.5546875,-21.484375
120.8984375,-37.109375,-61.5234375,2.9296875,-52.734375
120.90234375,1.953125,-42.48046875,-18.5546875,13.18359375
120.90625,23.4375,-34.66796875,-35.15625,70.3125
120.91015625,-26.3671875,-36.62109375,-20.01953125,18.06640625
120.9140625,-18.06640625,-47.8515625,-19.04296875,8.7890625
120.91796875,4.39453125,-37.59765625,-22.94921875,45.8984375
120.921875,-8.30078125,-16.6015625,-30.76171875,63.4765625
120.92578125,-1.46484375,-8.7890625,-32.71484375,30.2734375
120.9296875,-9.27734375,-37.109375,-13.671875,-29.78515625
120.93359375,1.953125,-52.734375,-9.27734375,5.37109375
120.9375,8.30078125,-34.1796875,-32.2265625,69.3359375
120.94140625,-4.39453125,-41.50390625,-19.04296875,74.21875
120.9453125,5.859375,-40.52734375,-1.953125,28.3203125
120.94921875,19.53125,-25.390625,-36.1328125,11.23046875
120.953125,4.8828125,-21.97265625,-32.2265625,47.36328125
120.95703125,-3.90625,-26.85546875,-16.11328125,62.98828125
120.9609375,19.04296875,-21.484375,-22.4609375,69.3359375
120.96484375,20.5078125,-17.08984375,-6.8359375,61.5234375
120.96875,5.859375,-21.484375,-10.7421875,21.484375
120.97265625,-3.41796875,-17.08984375,-41.9921875,30.2734375
120.9765625,-10.7421875,-39.55078125,-19.53125,21.484375
120.98046875,-23.4375,-37.59765625,-29.296875,-16.6015625
120.984375,-21.97265625,-29.78515625,-41.015625,25.390625
120.98828125,-3.90625,-35.64453125,-15.625,32.2265625
120.9921875,-5.37109375,-24.4140625,-21.484375,17.08984375
120.99609375,-11.23046875,-11.23046875,-15.625,0.48828125
121.0,-7.8125,-8.30078125,-10.7421875,15.625
121.00390625,-3.90625,-16.6015625,-14.16015625,37.59765625
121.0078125,-22.94921875,-24.4140625,-17.578125,5.859375
121.01171875,-26.85546875,-23.92578125,-27.83203125,-1.46484375
121.015625,-30.2734375,-19.04296875,-28.80859375,-2.44140625
121.01953125,-44.43359375,-17.578125,-17.578125,-2.44140625
121.0234375,-26.3671875,-20.5078125,-18.06640625,-12.20703125
121.02734375,-20.99609375,-23.92578125,-17.08984375,-18.06640625
121.03125,-34.1796875,-22.4609375,-15.13671875,-16.6015625
121.03515625,-41.9921875,-19.53125,-20.99609375,-35.64453125
121.0390625,-46.875,-25.87890625,-15.625,-39.55078125
121.04296875,-54.6875,-25.390625,-17.08984375,-46.38671875
121.046875,-74.70703125,-26.85546875,-26.85546875,-69.82421875
121.05078125,-78.125,-22.4609375,-14.16015625,-69.3359375
121.0546875,-87.40234375,-8.7890625,-13.671875,-75.68359375
121.05859375,-105.95703125,-19.04296875,-29.296875,-101.5625
121.0625,-120.1171875,-26.3671875,-26.3671875,-121.09375
121.06640625,-136.23046875,-21.484375,-19.53125,-117.67578125
121.0703125,-122.0703125,-23.4375,-19.04296875,-91.30859375
121.07421875,-114.74609375,-21.484375,-18.5546875,-94.7265625
121.078125,-119.140625,-17.08984375,-24.90234375,-115.72265625
121.08203125,-130.859375,-23.4375,-20.99609375,-116.69921875
121.0859375,-130.37109375,-18.5546875,-13.18359375,-106.4453125
121.08984375,-125.9765625,-19.53125,-14.6484375,-105.95703125
121.09375,-134.27734375,-17.08984375,-12.6953125,-112.79296875
121.09765625,-130.859375,-6.8359375,-10.25390625,-112.79296875
121.1015625,-128.90625,-8.30078125,-19.04296875,-125.9765625
121.10546875,-140.13671875,-6.34765625,-20.5078125,-128.90625
121.109375,-128.90625,6.34765625,-14.16015625,-115.234375
121.11328125,-131.8359375,9.765625,-18.06640625,-127.44140625
121.1171875,-150.87890625,1.46484375,-24.90234375,-138.671875
121.12109375,-132.32421875,7.8125,-16.11328125,-130.37109375
121.125,-123.53515625,9.27734375,-14.16015625,-131.34765625
121.12890625,-138.671875,1.46484375,-20.99609375,-143.5546875
121.1328125,-141.6015625,-0.9765625,-27.34375,-149.90234375
121.13671875,-128.90625,9.27734375,-26.3671875,-137.20703125
121.140625,-123.53515625,20.5078125,-22.94921875,-135.7421875
121.14453125,-133.30078125,16.11328125,-28.80859375,-153.80859375
121.1484375,-132.8125,3.41796875,-31.73828125,-147.4609375
121.15234375,-108.88671875,-5.37109375,-31.25,-130.859375
121.15625,-97.65625,11.23046875,-25.390625,-135.7421875
121.16015625,-103.02734375,19.53125,-21.484375,-121.58203125
121.1640625,-88.8671875,17.08984375,-23.92578125,-107.421875
121.16796875,-83.0078125,21.97265625,-19.53125,-107.91015625
121.171875,-72.265625,23.4375,-16.6015625,-90.8203125
121.17578125,-47.36328125,16.11328125,-16.6015625,-70.3125
121.1796875,-43.45703125,3.41796875,-21.97265625,-62.98828125
121.18359375,-49.31640625,5.859375,-25.390625,-53.7109375
121.1875,-26.85546875,15.625,-21.97265625,-30.76171875
121.19140625,-10.7421875,25.390625,-22.4609375,-16.6015625
121.1953125,-2.9296875,14.6484375,-30.2734375,-18.06640625
121.19921875,8.30078125,-0.48828125,-38.57421875,-0.9765625
121.203125,19.04296875,3.90625,-34.1796875,10.7421875
121.20703125,41.9921875,4.8828125,-30.2734375,10.7421875
121.2109375,60.05859375,5.37109375,-26.3671875,31.25
121.21484375,51.7578125,1.953125,-28.3203125,44.43359375
121.21875,58.10546875,-0.9765625,-31.25,55.6640625
121.22265625,80.56640625,-3.41796875,-27.83203125,62.5
121.2265625,89.35546875,-0.48828125,-25.87890625,60.546875
121.23046875,89.84375,5.859375,-23.92578125,62.5
121.234375,94.23828125,10.7421875,-20.01953125,72.265625
121.23828125,95.703125,6.34765625,-21.484375,76.66015625
121.2421875,96.6796875,-5.37109375,-26.3671875,75.68359375
121.24609375,97.16796875,-6.34765625,-22.4609375,78.61328125
121.25,90.8203125,-3.90625,-18.5546875,79.1015625
121.25390625,90.33203125,-6.8359375,-19.04296875,78.125
121.2578125,97.16796875,-4.39453125,-17.08984375,85.9375
121.26171875,94.23828125,3.41796875,-21.484375,79.58984375
121.265625,85.44921875,3.90625,-25.87890625,72.75390625
121.26953125,87.40234375,4.8828125,-23.4375,78.61328125
121.2734375,83.0078125,2.9296875,-23.92578125,72.265625
121.27734375,78.125,-6.8359375,-25.87890625,64.94140625
121.28125,80.56640625,-10.25390625,-22.94921875,68.84765625
121.28515625,82.51953125,-12.6953125,-22.4609375,74.21875
121.2890625,93.26171875,-12.20703125,-17.578125,81.54296875
121.29296875,86.9140625,-13.671875,-15.13671875,71.2890625
121.296875,62.98828125,-14.6484375,-19.04296875,48.828125
121.30078125,54.6875,-15.625,-16.6015625,41.50390625
121.3046875,75.68359375,-19.04296875,-10.7421875,58.59375
121.30859375,65.4296875,-16.6015625,-10.25390625,58.10546875
121.3125,41.9921875,-21.97265625,-15.625,42.96875
121.31640625,49.31640625,-29.296875,-17.08984375,50.78125
121.3203125,57.6171875,-19.04296875,-10.7421875,63.96484375
121.32421875,61.03515625,-16.11328125,-10.7421875,55.6640625
121.328125,58.10546875,-21.97265625,-14.16015625,50.78125
121.33203125,59.08203125,-26.85546875,-17.578125,55.17578125
121.3359375,58.10546875,-30.2734375,-20.01953125,51.26953125
121.33984375,45.8984375,-20.01953125,-23.92578125,45.41015625
121.34375,39.55078125,-15.625,-26.3671875,39.55078125
121.34765625,32.2265625,-21.97265625,-23.92578125,24.4140625
121.3515625,37.59765625,-18.5546875,-20.5078125,27.83203125
121.35546875,49.8046875,-7.32421875,-18.06640625,36.1328125
121.359375,39.0625,-7.8125,-20.01953125,13.18359375
121.36328125,34.66796875,-18.5546875,-25.87890625,10.25390625
121.3671875,36.62109375,-17.08984375,-23.4375,14.6484375
121.37109375,34.66796875,-16.11328125,-23.92578125,7.8125
121.375,32.71484375,-18.06640625,-26.85546875,8.7890625
121.37890625,23.4375,-21.484375,-24.90234375,-8.30078125
121.3828125,13.671875,-26.3671875,-29.78515625,-14.6484375
121.38671875,25.390625,-18.06640625,-30.2734375,-3.41796875
121.390625,46.38671875,-14.6484375,-21.484375,15.13671875
121.39453125,47.8515625,-16.6015625,-18.06640625,22.4609375
121.3984375,38.0859375,-12.6953125,-23.92578125,4.39453125
121.40234375,22.4609375,-13.671875,-24.4140625,2.9296875
121.40625,27.83203125,-7.32421875,-11.23046875,12.6953125
121.41015625,28.80859375,-7.32421875,-12.20703125,1.46484375
121.4140625,20.01953125,-23.4375,-18.06640625,1.953125
121.41796875,20.99609375,-24.4140625,-10.7421875,14.16015625
121.421875,19.04296875,-10.25390625,-8.30078125,10.7421875
121.42578125,14.16015625,-12.20703125,-14.16015625,-5.37109375
121.4296875,-0.9765625,-27.83203125,-22.4609375,-16.6015625
121.43359375,-1.46484375,-24.4140625,-30.2734375,-13.18359375
121.4375,19.53125,-20.5078125,-33.203125,0.9765625
121.44140625,32.2265625,-13.671875,-26.85546875,13.18359375
121.4453125,5.859375,-21.97265625,-20.99609375,4.8828125
121.44921875,-6.8359375,-38.0859375,-18.06640625,-7.32421875
121.453125,-3.41796875,-31.25,-12.6953125,0.48828125
121.45703125,-13.671875,-31.73828125,-15.13671875,-1.46484375
121.4609375,-12.20703125,-34.66796875,-16.11328125,-9.27734375
121.46484375,-21.97265625,-45.41015625,-14.6484375,-14.16015625
121.46875,-41.015625,-57.6171875,-19.04296875,-21.484375
121.47265625,-40.52734375,-59.08203125,-15.625,-12.6953125
121.4765625,-36.1328125,-68.359375,-18.06640625,-18.5546875
121.48046875,-41.015625,-79.58984375,-18.06640625,-21.97265625
121.484375,-54.19921875,-75.1953125,-14.6484375,-14.6484375
121.48828125,-49.8046875,-75.1953125,-17.08984375,-11.71875
121.4921875,-35.64453125,-73.2421875,-11.23046875,-0.9765625
121.49609375,-31.73828125,-71.2890625,-13.671875,-6.34765625
121.5,-30.2734375,-68.359375,-8.7890625,-6.8359375
121.50390625,-27.34375,-68.84765625,-5.859375,-2.44140625
121.5078125,-25.87890625,-75.68359375,-17.578125,-4.39453125
121.51171875,-26.3671875,-68.359375,-19.04296875,-0.48828125
121.515625,-29.296875,-54.6875,-20.01953125,-9.765625
121.51953125,-25.87890625,-47.36328125,-16.11328125,-3.41796875
121.5234375,-15.13671875,-45.41015625,-13.671875,6.8359375
121.52734375,-17.08984375,-55.6640625,-18.06640625,-3.90625
121.53125,-20.99609375,-57.6171875,-17.08984375,-4.8828125
121.53515625,-11.71875,-39.0625,-15.13671875,-2.44140625
121.5390625,-9.27734375,-37.109375,-21.97265625,-6.8359375
121.54296875,-20.5078125,-46.875,-29.78515625,-15.13671875
121.546875,-18.06640625,-43.45703125,-17.578125,-6.8359375
121.55078125,-29.78515625,-47.36328125,-16.6015625,-13.18359375
121.5546875,-35.64453125,-44.43359375,-23.92578125,-14.16015625
121.55859375,-21.484375,-37.59765625,-17.578125,1.46484375
121.5625,-27.34375,-42.96875,-17.08984375,-4.8828125
121.56640625,-32.2265625,-41.50390625,-14.6484375,-3.41796875
121.5703125,-21.97265625,-38.0859375,-5.37109375,6.8359375
121.57421875,-21.97265625,-35.64453125,-5.859375,11.71875
121.578125,-12.20703125,-32.71484375,-12.20703125,11.23046875
121.58203125,-3.41796875,-35.15625,-17.578125,1.953125
121.5859375,-3.90625,-31.25,-14.16015625,9.765625
121.58984375,2.9296875,-27.34375,-9.765625,19.53125
121.59375,3.90625,-24.4140625,-17.08984375,9.765625
121.59765625,-5.37109375,-24.90234375,-20.99609375,-4.39453125
121.6015625,-11.23046875,-29.296875,-22.4609375,-3.90625
121.60546875,0.9765625,-23.92578125,-23.92578125,5.37109375
121.609375,9.765625,-17.08984375,-20.5078125,-3.41796875
121.61328125,3.41796875,-19.53125,-21.484375,-14.6484375
121.6171875,-9.765625,-24.4140625,-27.83203125,-6.8359375
121.62109375,-9.27734375,-24.4140625,-23.92578125,5.37109375
121.625,1.46484375,-14.16015625,-14.16015625,14.6484375
121.62890625,-7.8125,-13.671875,-14.16015625,8.30078125
121.6328125,-20.01953125,-22.4609375,-12.6953125,2.9296875
121.63671875,-19.04296875,-23.4375,-11.23046875,-5.37109375
121.640625,-18.06640625,-23.4375,-15.625,-8.30078125
121.64453125,-23.92578125,-29.296875,-19.53125,-6.34765625
121.6484375,-27.34375,-32.71484375,-18.5546875,-18.5546875
121.65234375,-15.13671875,-30.76171875,-19.53125,-6.8359375
121.65625,-10.7421875,-30.2734375,-19.53125,2.44140625
121.66015625,-29.296875,-36.1328125,-23.92578125,-14.6484375
121.6640625,-35.15625,-35.64453125,-27.83203125,-18.5546875
121.66796875,-28.80859375,-27.34375,-25.87890625,-15.13671875
121.671875,-24.90234375,-28.3203125,-23.4375,-11.23046875
121.67578125,-29.78515625,-32.71484375,-27.83203125,-19.04296875
121.6796875,-34.66796875,-28.3203125,-31.25,-28.3203125
121.68359375,-29.78515625,-26.3671875,-26.85546875,-17.578125
121.6875,-19.53125,-23.92578125,-29.296875,-12.20703125
121.69140625,-10.25390625,-19.04296875,-29.296875,-6.8359375
121.6953125,-4.39453125,-19.04296875,-22.94921875,-4.8828125
121.69921875,-8.30078125,-29.296875,-22.4609375,-12.6953125
121.703125,-20.5078125,-32.2265625,-25.87890625,-18.06640625
121.70703125,-22.4609375,-29.296875,-25.87890625,-12.6953125
121.7109375,-22.94921875,-34.66796875,-21.97265625,-8.30078125
121.71484375,-19.04296875,-30.2734375,-20.01953125,-3.90625
121.71875,-15.625,-20.99609375,-16.6015625,3.90625
121.72265625,-16.6015625,-18.06640625,-12.6953125,1.953125
121.7265625,-24.4140625,-29.78515625,-14.6484375,-5.859375
121.73046875,-29.78515625,-37.109375,-14.16015625,-4.39453125
121.734375,-21.97265625,-29.296875,-8.7890625,6.34765625
121.73828125,-26.85546875,-31.25,-15.625,1.46484375
121.7421875,-40.52734375,-35.64453125,-26.3671875,-10.7421875
121.74609375,-39.55078125,-36.62109375,-22.94921875,-16.11328125
121.75,-41.50390625,-25.390625,-19.53125,-22.4609375
121.75390625,-36.1328125,-15.625,-17.578125,-20.01953125
121.7578125,-28.3203125,-21.484375,-12.6953125,-14.16015625
121.76171875,-35.64453125,-26.85546875,-13.18359375,-12.20703125
121.765625,-41.50390625,-21.484375,-19.04296875,-9.27734375
121.76953125,-33.69140625,-21.97265625,-20.99609375,-3.41796875
121.7734375,-18.06640625,-20.99609375,-14.16015625,0.48828125
121.77734375,-21.484375,-18.5546875,-15.13671875,1.46484375
121.78125,-29.78515625,-23.92578125,-19.53125,-2.44140625
121.78515625,-19.04296875,-21.97265625,-11.71875,-0.48828125
121.7890625,-18.06640625,-25.87890625,-19.04296875,3.90625
121.79296875,-29.296875,-34.66796875,-32.2265625,-7.8125
121.796875,-26.3671875,-31.25,-30.2734375,-20.99609375
121.80078125,-21.97265625,-25.390625,-31.73828125,-17.578125
121.8046875,-18.06640625,-23.4375,-24.90234375,-1.46484375
121.80859375,-11.23046875,-19.53125,-21.484375,-10.25390625
121.8125,-22.94921875,-20.99609375,-27.34375,-29.296875
121.81640625,-29.296875,-22.94921875,-24.90234375,-20.5078125
121.8203125,-8.7890625,-14.16015625,-19.04296875,-11.23046875
121.82421875,-12.20703125,-7.32421875,-19.04296875,-14.16015625
121.828125,-33.203125,-15.625,-23.4375,-30.2734375
121.83203125,-43.45703125,-25.87890625,-24.90234375,-32.71484375
121.8359375,-34.66796875,-22.4609375,-21.97265625,-14.16015625
121.83984375,-21.484375,-20.01953125,-21.484375,-7.32421875
121.84375,-19.04296875,-20.01953125,-28.3203125,-18.06640625
121.84765625,-26.85546875,-21.97265625,-29.296875,-12.6953125
121.8515625,-27.34375,-22.4609375,-29.78515625,0.0
121.85546875,-15.13671875,-17.08984375,-27.34375,10.7421875
121.859375,-9.765625,-20.99609375,-23.92578125,7.8125
121.86328125,-13.671875,-28.3203125,-25.87890625,-5.37109375
121.8671875,-21.484375,-19.53125,-21.484375,1.953125
121.87109375,-17.08984375,-12.6953125,-16.11328125,4.39453125
121.875,-17.578125,-15.625,-15.625,3.41796875
121.87890625,-27.83203125,-17.08984375,-23.4375,-9.27734375
121.8828125,-28.80859375,-19.53125,-26.85546875,-20.01953125
121.88671875,-17.578125,-15.13671875,-20.99609375,-10.7421875
121.890625,-14.16015625,-15.625,-21.97265625,-16.6015625
121.89453125,-17.578125,-17.578125,-27.34375,-22.4609375
121.8984375,-21.97265625,-28.80859375,-31.73828125,-24.90234375
121.90234375,-22.94921875,-34.66796875,-30.76171875,-24.90234375
121.90625,-11.23046875,-31.25,-30.2734375,-17.578125
121.91015625,-4.8828125,-25.87890625,-22.94921875,-18.06640625
121.9140625,-17.08984375,-19.53125,-17.08984375,-18.5546875
121.91796875,-24.90234375,-25.87890625,-25.87890625,-17.578125
121.921875,-17.578125,-23.92578125,-25.390625,-18.5546875
121.92578125,-22.4609375,-25.390625,-23.4375,-19.53125
121.9296875,-32.2265625,-29.78515625,-29.296875,-19.04296875
121.93359375,-29.296875,-20.01953125,-24.90234375,-17.578125
121.9375,-16.6015625,-17.08984375,-21.97265625,-19.04296875
121.94140625,-10.7421875,-22.94921875,-25.390625,-16.11328125
121.9453125,-13.671875,-22.4609375,-30.76171875,-10.25390625
121.94921875,-11.71875,-23.92578125,-22.94921875,-7.32421875
121.953125,-13.18359375,-25.87890625,-17.08984375,-6.34765625
121.95703125,-25.390625,-30.2734375,-26.85546875,-13.18359375
121.9609375,-27.83203125,-31.25,-31.25,-23.4375
121.96484375,-26.3671875,-26.3671875,-23.92578125,-23.4375
121.96875,-34.66796875,-22.4609375,-22.4609375,-27.34375
121.97265625,-20.99609375,-22.94921875,-22.4609375,-22.94921875
121.9765625,-16.6015625,-29.78515625,-25.390625,-22.4609375
121.98046875,-24.4140625,-26.3671875,-24.4140625,-28.3203125
121.984375,-21.484375,-15.625,-16.11328125,-13.671875
121.98828125,-18.5546875,-19.53125,-17.08984375,-3.90625
121.9921875,-9.27734375,-27.83203125,-19.53125,-13.18359375
121.99609375,-5.859375,-18.06640625,-13.18359375,-18.5546875
122.0,-11.71875,-8.7890625,-10.7421875,-15.13671875
122.00390625,-20.99609375,-16.11328125,-17.08984375,-15.13671875
122.0078125,-22.94921875,-21.97265625,-18.5546875,-15.13671875
122.01171875,-24.4140625,-24.90234375,-19.04296875,-19.04296875
122.015625,-28.3203125,-23.92578125,-23.4375,-22.94921875
122.01953125,-18.5546875,-29.78515625,-21.97265625,-19.53125
122.0234375,-5.859375,-27.34375,-18.06640625,-12.6953125
122.02734375,-2.44140625,-22.94921875,-16.6015625,-18.5546875
122.03125,-3.41796875,-31.73828125,-12.20703125,-28.3203125
122.03515625,-9.765625,-27.34375,-17.578125,-30.2734375
122.0390625,-5.37109375,-17.578125,-24.90234375,-22.4609375
122.04296875,-3.90625,-17.08984375,-24.4140625,-20.99609375
122.046875,-11.71875,-18.06640625,-21.484375,-23.4375
122.05078125,-10.7421875,-19.53125,-21.484375,-18.5546875
122.0546875,-6.8359375,-19.53125,-24.4140625,-9.27734375
122.05859375,-7.8125,-25.87890625,-22.94921875,-17.578125
122.0625,-18.06640625,-31.25,-21.484375,-20.5078125
122.06640625,-21.484375,-33.203125,-24.90234375,-9.27734375
122.0703125,-21.97265625,-43.45703125,-24.90234375,-10.7421875
122.07421875,-26.3671875,-37.59765625,-20.01953125,-16.6015625
122.078125,-22.4609375,-29.78515625,-25.390625,-19.53125
122.08203125,-20.99609375,-26.85546875,-28.3203125,-23.92578125
122.0859375,-23.4375,-27.34375,-25.390625,-10.25390625
122.08984375,-18.5546875,-31.25,-22.4609375,1.46484375
122.09375,-15.625,-29.296875,-19.53125,-8.7890625
122.09765625,-23.92578125,-23.4375,-19.04296875,-17.08984375
122.1015625,-21.484375,-15.13671875,-19.53125,-5.859375
122.10546875,-18.5546875,-11.71875,-11.71875,7.8125
122.109375,-18.5546875,-16.11328125,-8.7890625,4.8828125
122.11328125,-16.11328125,-13.18359375,-15.625,0.0
122.1171875,-19.53125,-17.578125,-20.99609375,-17.578125
122.12109375,-16.6015625,-28.80859375,-23.4375,-26.3671875
122.125,-14.6484375,-23.4375,-25.390625,-21.97265625
122.12890625,-14.6484375,-15.13671875,-20.99609375,-19.04296875
122.1328125,-17.578125,-14.16015625,-17.08984375,-16.11328125
122.13671875,-22.4609375,-16.11328125,-22.94921875,-23.4375
122.140625,-19.04296875,-13.671875,-23.92578125,-25.390625
122.14453125,-20.01953125,-14.16015625,-19.53125,-15.13671875
122.1484375,-27.34375,-22.4609375,-20.99609375,-11.71875
122.15234375,-30.76171875,-28.80859375,-16.6015625,-10.25390625
122.15625,-12.20703125,-19.53125,-10.25390625,-12.6953125
122.16015625,-12.6953125,-11.71875,-13.18359375,-28.3203125
122.1640625,-33.203125,-22.94921875,-21.97265625,-32.2265625
122.16796875,-35.15625,-22.94921875,-24.90234375,-20.99609375
122.171875,-31.73828125,-17.578125,-23.92578125,-16.6015625
122.17578125,-28.80859375,-22.94921875,-20.01953125,-13.671875
122.1796875,-32.71484375,-29.78515625,-23.4375,-15.625
122.18359375,-31.73828125,-20.01953125,-20.5078125,-16.6015625
122.1875,-21.484375,-11.23046875,-11.71875,-1.953125
122.19140625,-21.97265625,-23.92578125,-19.53125,-11.23046875
122.1953125,-25.87890625,-25.87890625,-20.01953125,-23.4375
122.19921875,-25.87890625,-15.13671875,-12.6953125,-23.4375
122.203125,-20.99609375,-18.5546875,-22.4609375,-22.94921875
122.20703125,-26.85546875,-17.08984375,-24.4140625,-20.5078125
122.2109375,-26.85546875,-10.7421875,-18.06640625,-12.6953125
122.21484375,-31.25,-16.6015625,-17.08984375,-7.32421875
122.21875,-41.9921875,-29.296875,-15.13671875,-15.13671875
122.22265625,-33.69140625,-32.2265625,-15.13671875,-16.6015625
122.2265625,-34.66796875,-27.34375,-21.97265625,-21.484375
122.23046875,-34.1796875,-28.80859375,-23.4375,-20.5078125
122.234375,-31.25,-33.69140625,-21.484375,-11.23046875
122.23828125,-24.90234375,-20.01953125,-18.5546875,-7.8125
122.2421875,-18.5546875,-8.30078125,-15.625,-4.39453125
122.24609375,-32.2265625,-14.6484375,-13.18359375,-10.7421875
122.25,-38.0859375,-13.671875,-8.30078125,-13.671875
122.25390625,-26.3671875,-15.13671875,-12.20703125,-7.32421875
122.2578125,-25.390625,-22.94921875,-18.06640625,-4.39453125
122.26171875,-43.45703125,-25.87890625,-21.484375,-20.01953125
122.265625,-45.8984375,-26.3671875,-26.3671875,-34.1796875
122.26953125,-35.64453125,-26.3671875,-23.92578125,-21.97265625
122.2734375,-36.62109375,-27.34375,-18.5546875,-16.11328125
122.27734375,-41.50390625,-26.3671875,-22.94921875,-35.64453125
122.28125,-47.8515625,-24.90234375,-27.83203125,-46.38671875
122.28515625,-53.22265625,-27.34375,-24.4140625,-33.69140625
122.2890625,-50.29296875,-31.73828125,-21.484375,-30.2734375
122.29296875,-41.9921875,-35.15625,-24.90234375,-37.109375
122.296875,-38.57421875,-41.50390625,-27.83203125,-30.76171875
122.30078125,-34.66796875,-33.69140625,-30.2734375,-25.390625
122.3046875,-38.57421875,-28.3203125,-31.73828125,-38.0859375
122.30859375,-40.52734375,-29.78515625,-33.69140625,-30.76171875
122.3125,-41.50390625,-22.94921875,-28.80859375,-29.296875
122.31640625,-55.17578125,-18.06640625,-20.5078125,-39.0625
122.3203125,-54.19921875,-20.99609375,-23.4375,-26.3671875
122.32421875,-40.0390625,-23.4375,-25.390625,-23.4375
122.328125,-29.78515625,-22.4609375,-21.484375,-28.3203125
122.33203125,-25.87890625,-18.5546875,-25.87890625,-21.484375
122.3359375,-25.87890625,-28.3203125,-31.73828125,-8.7890625
122.33984375,-20.99609375,-39.0625,-26.3671875,-4.8828125
122.34375,-14.6484375,-27.83203125,-19.53125,-13.18359375
122.34765625,-6.8359375,-15.13671875,-16.11328125,-10.7421875
122.3515625,-9.765625,-16.11328125,-20.01953125,-2.9296875
122.35546875,-7.32421875,-16.11328125,-14.16015625,4.39453125
122.359375,-3.90625,-14.16015625,-12.20703125,9.765625
122.36328125,-9.27734375,-19.53125,-18.06640625,0.48828125
122.3671875,-5.859375,-18.5546875,-18.06640625,0.48828125
122.37109375,9.765625,-12.20703125,-16.11328125,12.6953125
122.375,13.18359375,-13.671875,-13.18359375,10.7421875
122.37890625,-10.25390625,-21.484375,-16.11328125,1.953125
122.3828125,-19.53125,-28.80859375,-23.4375,-1.953125
122.38671875,-10.7421875,-34.1796875,-23.4375,0.9765625
122.390625,-12.6953125,-37.59765625,-20.99609375,-0.48828125
122.39453125,-20.01953125,-31.25,-25.390625,-3.90625
122.3984375,-13.671875,-23.4375,-18.06640625,-3.41796875
122.40234375,-9.765625,-22.4609375,-14.16015625,-0.9765625
122.40625,-10.7421875,-23.4375,-20.01953125,-4.39453125
122.41015625,-9.765625,-20.5078125,-23.92578125,-7.8125
122.4140625,-0.9765625,-17.08984375,-20.99609375,-2.9296875
122.41796875,2.9296875,-12.20703125,-15.625,-1.953125
122.421875,-19.04296875,-18.5546875,-20.01953125,-12.6953125
122.42578125,-29.296875,-20.5078125,-22.94921875,-25.390625
122.4296875,-20.99609375,-13.18359375,-19.53125,-21.97265625
122.43359375,-20.99609375,-11.23046875,-21.97265625,-15.625
122.4375,-13.18359375,-18.06640625,-23.92578125,-17.08984375
122.44140625,-7.32421875,-20.5078125,-20.5078125,-13.671875
122.4453125,-22.94921875,-20.99609375,-20.01953125,-6.34765625
122.44921875,-33.203125,-28.80859375,-26.3671875,-11.71875
122.453125,-27.83203125,-29.296875,-23.92578125,-8.30078125
122.45703125,-16.11328125,-24.4140625,-23.92578125,-1.46484375
122.4609375,-20.01953125,-25.87890625,-24.4140625,2.44140625
122.46484375,-29.296875,-24.90234375,-18.5546875,-1.46484375
122.46875,-24.4140625,-24.90234375,-13.18359375,0.48828125
122.47265625,-16.11328125,-27.34375,-8.30078125,10.7421875
122.4765625,-15.625,-27.34375,-16.6015625,3.90625
122.48046875,-20.99609375,-24.4140625,-24.4140625,-4.39453125
122.484375,-27.34375,-23.92578125,-27.34375,-2.44140625
122.48828125,-17.08984375,-29.296875,-34.66796875,-8.7890625
122.4921875,-12.20703125,-25.390625,-28.3203125,-9.765625
122.49609375,-28.3203125,-20.99609375,-22.4609375,-13.671875
122.5,-28.3203125,-20.99609375,-26.3671875,-16.11328125
122.50390625,-26.3671875,-31.25,-30.2734375,-4.8828125
122.5078125,-23.4375,-41.9921875,-32.2265625,1.953125
122.51171875,-18.5546875,-29.296875,-30.2734375,-1.953125
122.515625,-20.5078125,-21.97265625,-31.25,-5.859375
122.51953125,-27.34375,-26.85546875,-25.390625,-1.46484375
122.5234375,-24.4140625,-24.90234375,-18.06640625,1.953125
122.52734375,-17.08984375,-21.97265625,-20.01953125,-1.953125
122.53125,-17.08984375,-22.4609375,-20.5078125,-2.9296875
122.53515625,-13.671875,-29.296875,-11.71875,3.90625
122.5390625,-20.01953125,-38.57421875,-14.6484375,11.71875
122.54296875,-32.71484375,-34.66796875,-20.99609375,2.44140625
122.546875,-23.92578125,-29.296875,-19.04296875,-1.46484375
122.55078125,-20.99609375,-21.97265625,-17.578125,2.9296875
122.5546875,-23.92578125,-15.13671875,-17.578125,6.8359375
122.55859375,-9.27734375,-24.4140625,-17.08984375,14.16015625
122.5625,-19.04296875,-29.78515625,-19.04296875,1.46484375
122.56640625,-38.0859375,-22.4609375,-20.99609375,-16.11328125
122.5703125,-34.1796875,-17.08984375,-24.4140625,-23.4375
122.57421875,-52.24609375,-20.01953125,-31.73828125,-25.87890625
122.578125,-64.94140625,-24.4140625,-26.85546875,-38.57421875
122.58203125,-69.3359375,-26.3671875,-21.97265625,-51.7578125
122.5859375,-82.03125,-26.3671875,-27.34375,-59.08203125
122.58984375,-75.68359375,-26.3671875,-28.3203125,-62.98828125
122.59375,-72.75390625,-30.76171875,-29.78515625,-59.08203125
122.59765625,-65.91796875,-30.2734375,-23.92578125,-40.0390625
122.6015625,-54.6875,-25.390625,-18.06640625,-18.5546875
122.60546875,-59.08203125,-28.80859375,-18.06640625,-7.8125
122.609375,-50.29296875,-28.3203125,-15.625,-2.44140625
122.61328125,-45.41015625,-29.296875,-17.578125,3.90625
122.6171875,-49.31640625,-34.66796875,-23.4375,2.9296875
122.62109375,-38.0859375,-28.3203125,-19.53125,5.859375
122.625,-38.0859375,-25.87890625,-13.671875,20.99609375
122.62890625,-45.8984375,-29.296875,-20.99609375,16.11328125
122.6328125,-46.38671875,-27.34375,-23.92578125,8.30078125
122.63671875,-39.55078125,-22.4609375,-17.578125,23.92578125
122.640625,-35.64453125,-21.97265625,-24.4140625,22.94921875
122.64453125,-32.71484375,-22.4609375,-27.83203125,0.0
122.6484375,-28.3203125,-22.4609375,-32.2265625,-7.32421875
122.65234375,-19.04296875,-24.4140625,-32.71484375,12.20703125
122.65625,-18.06640625,-29.296875,-22.94921875,19.04296875
122.66015625,-24.4140625,-32.71484375,-29.296875,2.44140625
122.6640625,-12.6953125,-26.3671875,-29.78515625,8.30078125
122.66796875,-11.71875,-25.87890625,-23.4375,19.53125
122.671875,-23.4375,-26.3671875,-26.85546875,23.92578125
122.67578125,-25.390625,-20.99609375,-23.92578125,16.6015625
122.6796875,-20.99609375,-22.4609375,-21.484375,6.8359375
122.68359375,-26.85546875,-29.78515625,-23.92578125,10.7421875
122.6875,-36.1328125,-32.71484375,-22.4609375,16.6015625
122.69140625,-19.53125,-20.5078125,-17.08984375,23.4375
122.6953125,-12.6953125,-16.6015625,-15.13671875,21.484375
122.69921875,-27.34375,-28.80859375,-19.04296875,19.53125
122.703125,-19.04296875,-23.92578125,-16.6015625,26.3671875
122.70703125,-4.8828125,-17.578125,-19.53125,26.85546875
122.7109375,-14.16015625,-20.99609375,-32.2265625,8.30078125
122.71484375,-36.62109375,-28.80859375,-31.73828125,-1.953125
122.71875,-33.69140625,-28.3203125,-22.94921875,19.53125
122.72265625,-22.94921875,-20.01953125,-20.99609375,29.78515625
122.7265625,-27.34375,-18.5546875,-20.99609375,14.16015625
122.73046875,-33.203125,-14.16015625,-22.4609375,-3.90625
122.734375,-25.87890625,-11.23046875,-20.5078125,11.71875
122.73828125,-13.18359375,-10.7421875,-16.6015625,32.71484375
122.7421875,-7.32421875,-15.625,-29.296875,16.11328125
122.74609375,-11.71875,-20.5078125,-33.203125,5.859375
122.75,-24.90234375,-20.99609375,-20.01953125,7.8125
122.75390625,-23.4375,-28.80859375,-13.18359375,9.27734375
122.7578125,-14.16015625,-28.80859375,-10.7421875,16.6015625
122.76171875,-17.578125,-20.01953125,-18.06640625,8.7890625
122.765625,-37.59765625,-22.4609375,-27.34375,-8.7890625
122.76953125,-40.0390625,-27.34375,-28.3203125,0.48828125
122.7734375,-25.87890625,-20.99609375,-29.296875,-0.9765625
122.77734375,-12.20703125,-11.23046875,-24.90234375,-13.671875
122.78125,-15.625,-10.7421875,-16.11328125,-4.8828125
122.78515625,-28.3203125,-18.5546875,-19.04296875,-8.7890625
122.7890625,-23.92578125,-20.01953125,-19.53125,-4.39453125
122.79296875,-26.85546875,-21.97265625,-21.484375,1.953125
122.796875,-41.9921875,-33.69140625,-33.69140625,-12.6953125
122.80078125,-45.8984375,-30.2734375,-27.83203125,-12.20703125
122.8046875,-29.296875,-20.5078125,-14.6484375,11.23046875
122.80859375,-18.06640625,-17.08984375,-14.16015625,23.92578125
122.8125,-29.78515625,-25.390625,-20.5078125,1.46484375
122.81640625,-38.0859375,-32.2265625,-23.92578125,-10.25390625
122.8203125,-19.04296875,-23.92578125,-17.08984375,14.6484375
122.82421875,-10.25390625,-22.4609375,-13.671875,23.4375
122.828125,-17.578125,-23.92578125,-17.08984375,11.71875
122.83203125,-20.99609375,-22.94921875,-16.6015625,17.08984375
122.8359375,-22.4609375,-21.484375,-17.578125,22.94921875
122.83984375,-20.5078125,-22.94921875,-26.3671875,15.13671875
122.84375,-20.99609375,-21.97265625,-25.87890625,14.6484375
122.84765625,-30.2734375,-23.4375,-17.578125,27.34375
122.8515625,-29.78515625,-33.203125,-12.6953125,43.45703125
122.85546875,-20.5078125,-26.3671875,-11.71875,50.29296875
122.859375,-17.08984375,-12.20703125,-14.16015625,49.8046875
122.86328125,-23.4375,-14.16015625,-17.578125,42.96875
122.8671875,-30.76171875,-17.578125,-19.53125,46.875
122.87109375,-21.484375,-16.6015625,-9.765625,59.08203125
122.875,-16.6015625,-10.25390625,-1.46484375,59.5703125
122.87890625,-34.66796875,-11.23046875,-15.13671875,48.828125
122.8828125,-45.8984375,-25.390625,-28.3203125,34.1796875
122.88671875,-40.0390625,-33.203125,-23.92578125,39.0625
122.890625,-37.59765625,-28.3203125,-18.06640625,41.9921875
122.89453125,-50.78125,-24.90234375,-29.296875,27.83203125
122.8984375,-64.94140625,-24.4140625,-31.25,13.18359375
122.90234375,-59.5703125,-26.85546875,-22.4609375,12.6953125
122.90625,-45.41015625,-23.92578125,-23.92578125,13.671875
122.91015625,-29.296875,-19.53125,-28.80859375,13.671875
122.9140625,-23.92578125,-22.4609375,-25.87890625,20.5078125
122.91796875,-32.2265625,-23.92578125,-15.13671875,35.64453125
122.921875,-19.04296875,-23.4375,-14.6484375,45.8984375
122.92578125,10.25390625,-26.3671875,-13.671875,49.8046875
122.9296875,21.97265625,-26.3671875,-15.625,47.36328125
122.93359375,19.04296875,-20.5078125,-14.6484375,51.7578125
122.9375,19.04296875,-23.4375,-5.37109375,62.5
122.94140625,24.90234375,-25.87890625,-11.71875,64.453125
122.9453125,28.80859375,-27.34375,-18.5546875,61.03515625
122.94921875,29.296875,-28.3203125,-12.6953125,57.12890625
122.953125,33.69140625,-26.3671875,-12.6953125,71.2890625
122.95703125,43.9453125,-21.97265625,-13.671875,83.984375
122.9609375,36.1328125,-20.01953125,-10.25390625,81.0546875
122.96484375,28.3203125,-22.94921875,-10.7421875,86.9140625
122.96875,33.69140625,-20.99609375,-9.765625,83.49609375
122.97265625,32.2265625,-19.53125,-11.71875,73.73046875
122.9765625,32.2265625,-24.4140625,-11.23046875,56.15234375
122.98046875,21.97265625,-28.3203125,-6.8359375,38.57421875
122.984375,11.23046875,-27.83203125,-8.30078125,51.7578125
122.98828125,17.578125,-28.3203125,-13.671875,54.19921875
122.9921875,18.5546875,-23.92578125,-14.6484375,51.26953125
122.99609375,13.18359375,-19.53125,-10.25390625,49.31640625
123.0,9.765625,-21.97265625,-11.71875,43.45703125
123.00390625,20.5078125,-27.83203125,-7.8125,48.33984375
123.0078125,25.390625,-28.3203125,-5.859375,52.24609375
123.01171875,17.08984375,-16.6015625,-11.23046875,44.43359375
123.015625,11.71875,-20.5078125,-11.23046875,39.55078125
123.01953125,15.13671875,-19.04296875,-13.18359375,51.7578125
123.0234375,20.01953125,-7.8125,-15.625,50.29296875
123.02734375,15.625,-3.90625,-11.23046875,29.78515625
123.03125,9.765625,-12.20703125,-17.08984375,24.4140625
123.03515625,3.90625,-20.99609375,-19.53125,25.87890625
123.0390625,-0.48828125,-21.484375,-22.94921875,19.04296875
123.04296875,6.8359375,-17.578125,-20.99609375,21.484375
123.046875,13.671875,-16.6015625,-13.18359375,20.5078125
123.05078125,5.37109375,-17.578125,-16.6015625,14.16015625
123.0546875,-2.44140625,-19.04296875,-18.06640625,13.18359375
123.05859375,-2.9296875,-23.4375,-20.99609375,13.671875
123.0625,-10.7421875,-22.4609375,-15.625,7.8125
123.06640625,-14.16015625,-20.99609375,-13.671875,4.39453125
123.0703125,-7.32421875,-28.80859375,-20.01953125,22.4609375
123.07421875,8.30078125,-31.25,-14.16015625,22.4609375
123.078125,11.23046875,-22.94921875,-16.6015625,5.859375
123.08203125,0.9765625,-15.625,-18.06640625,4.39453125
123.0859375,-3.41796875,-12.6953125,-14.16015625,14.6484375
123.08984375,-5.37109375,-16.6015625,-14.6484375,8.7890625
123.09375,3.90625,-15.625,-14.6484375,15.13671875
123.09765625,-7.32421875,-18.5546875,-18.06640625,28.80859375
123.1015625,-20.5078125,-28.3203125,-25.87890625,7.8125
123.10546875,-5.859375,-25.87890625,-25.390625,-7.32421875
123.109375,0.9765625,-20.99609375,-24.4140625,-6.34765625
123.11328125,-16.6015625,-25.87890625,-26.85546875,-7.8125
123.1171875,-1.953125,-26.3671875,-20.01953125,-13.18359375
123.12109375,13.18359375,-23.92578125,-14.6484375,-2.44140625
123.125,4.39453125,-24.4140625,-13.671875,3.90625
123.12890625,4.39453125,-18.06640625,-9.765625,0.48828125
123.1328125,-2.9296875,-16.11328125,-9.27734375,0.0
123.13671875,-6.34765625,-19.04296875,-21.97265625,-4.8828125
123.140625,-12.20703125,-19.04296875,-33.69140625,-15.625
123.14453125,-15.13671875,-18.06640625,-30.76171875,-22.94921875
123.1484375,-13.18359375,-13.18359375,-24.90234375,-18.06640625
123.15234375,-15.13671875,-14.6484375,-20.99609375,-2.44140625
123.15625,-9.27734375,-20.99609375,-15.625,9.765625
123.16015625,-11.23046875,-18.5546875,-19.04296875,-0.9765625
123.1640625,-22.94921875,-19.04296875,-26.3671875,-18.5546875
123.16796875,-28.3203125,-21.484375,-25.390625,-17.08984375
123.171875,-13.671875,-19.53125,-29.296875,-0.9765625
123.17578125,-10.7421875,-15.625,-31.25,-2.44140625
123.1796875,-23.92578125,-14.6484375,-26.3671875,-8.30078125
123.18359375,-26.85546875,-15.13671875,-22.4609375,-7.8125
123.1875,-15.625,-15.625,-12.6953125,5.37109375
123.19140625,2.9296875,-17.578125,-9.765625,23.92578125
123.1953125,-9.765625,-24.90234375,-15.625,-1.46484375
123.19921875,-22.94921875,-32.2265625,-14.6484375,-0.9765625
123.203125,-8.30078125,-31.73828125,-16.6015625,16.11328125
123.20703125,-2.44140625,-21.484375,-17.578125,5.37109375
123.2109375,-7.8125,-19.04296875,-23.92578125,-12.20703125
123.21484375,-3.90625,-25.390625,-21.97265625,-10.7421875
123.21875,2.9296875,-27.34375,-11.23046875,6.34765625
123.22265625,5.859375,-18.5546875,-5.859375,5.859375
123.2265625,7.32421875,-22.94921875,-12.6953125,7.8125
123.23046875,-13.671875,-33.203125,-20.99609375,2.9296875
123.234375,-22.94921875,-26.3671875,-26.3671875,-16.6015625
123.23828125,-9.27734375,-23.4375,-24.90234375,-16.6015625
123.2421875,-2.9296875,-22.94921875,-18.06640625,-10.25390625
123.24609375,-6.34765625,-20.99609375,-20.01953125,-12.6953125
123.25,-1.953125,-19.04296875,-21.484375,-4.8828125
123.25390625,0.48828125,-12.20703125,-18.5546875,8.30078125
123.2578125,0.0,-14.6484375,-17.578125,8.7890625
123.26171875,1.46484375,-19.53125,-20.01953125,-0.9765625
123.265625,-6.8359375,-22.94921875,-18.5546875,-15.625
123.26953125,-6.34765625,-34.66796875,-15.13671875,-11.23046875
123.2734375,0.0,-32.2265625,-14.6484375,-1.46484375
123.27734375,-9.27734375,-25.87890625,-20.01953125,-2.44140625
123.28125,-24.90234375,-24.90234375,-24.90234375,-22.4609375
123.28515625,-24.90234375,-17.08984375,-18.06640625,-21.484375
123.2890625,-21.484375,-18.5546875,-18.5546875,0.48828125
123.29296875,-27.34375,-26.3671875,-25.87890625,-22.94921875
123.296875,-27.83203125,-23.92578125,-27.83203125,-36.1328125
123.30078125,-27.83203125,-21.97265625,-23.92578125,-22.94921875
123.3046875,-11.23046875,-23.92578125,-19.04296875,-2.9296875
123.30859375,-2.44140625,-22.94921875,-20.99609375,4.8828125
123.3125,-13.671875,-20.99609375,-21.97265625,-7.32421875
123.31640625,-16.11328125,-21.484375,-19.53125,-15.625
123.3203125,-11.23046875,-21.97265625,-20.5078125,-13.18359375
123.32421875,-14.16015625,-27.34375,-26.3671875,-12.20703125
123.328125,-7.8125,-27.83203125,-23.4375,-9.765625
123.33203125,-7.32421875,-24.4140625,-17.578125,-9.27734375
123.3359375,-16.11328125,-16.6015625,-19.04296875,-10.7421875
123.33984375,-14.16015625,-12.20703125,-22.4609375,-11.23046875
123.34375,-12.6953125,-19.04296875,-17.578125,-8.30078125
123.34765625,-12.20703125,-22.94921875,-11.71875,-15.625
123.3515625,-18.06640625,-29.296875,-18.06640625,-12.20703125
123.35546875,-16.11328125,-28.80859375,-25.390625,-6.34765625
123.359375,-15.13671875,-29.78515625,-25.390625,-18.5546875
123.36328125,-12.6953125,-31.25,-17.08984375,-10.25390625
123.3671875,-4.39453125,-27.83203125,-13.18359375,-0.48828125
123.37109375,-12.6953125,-33.203125,-15.625,-17.578125
123.375,-13.671875,-34.1796875,-16.11328125,-20.01953125
123.37890625,-10.7421875,-27.83203125,-16.11328125,-11.71875
123.3828125,-11.23046875,-27.83203125,-10.7421875,-1.953125
123.38671875,-0.48828125,-26.3671875,-14.6484375,0.48828125
123.390625,-14.6484375,-24.90234375,-26.3671875,-11.71875
123.39453125,-24.4140625,-16.6015625,-29.78515625,-18.06640625
123.3984375,-11.23046875,-10.25390625,-31.25,-20.01953125
123.40234375,-9.765625,-17.578125,-33.203125,-9.765625
123.40625,4.39453125,-21.484375,-20.99609375,7.32421875
123.41015625,4.39453125,-25.87890625,-9.27734375,-8.30078125
123.4140625,-11.71875,-26.85546875,-17.08984375,-32.2265625
123.41796875,-14.6484375,-26.3671875,-20.01953125,-22.4609375
123.421875,-18.06640625,-13.671875,-20.01953125,-10.25390625
123.42578125,-15.625,-15.13671875,-21.484375,-14.6484375
123.4296875,-11.71875,-27.34375,-18.06640625,-16.11328125
123.43359375,-16.6015625,-21.97265625,-14.16015625,-9.27734375
123.4375,-16.11328125,-24.90234375,-19.04296875,-7.32421875
123.44140625,-15.13671875,-29.296875,-19.04296875,-18.06640625
123.4453125,-9.27734375,-30.2734375,-16.11328125,-16.6015625
123.44921875,-12.20703125,-25.87890625,-18.5546875,-5.859375
123.453125,-23.4375,-25.390625,-18.06640625,-10.25390625
123.45703125,-26.3671875,-30.2734375,-23.4375,-13.18359375
123.4609375,-29.78515625,-23.4375,-26.85546875,-13.671875
123.46484375,-28.3203125,-18.06640625,-20.01953125,-20.5078125
123.46875,-15.625,-16.6015625,-10.7421875,-19.53125
123.47265625,-9.27734375,-28.80859375,-4.8828125,-5.859375
123.4765625,-5.37109375,-44.43359375,5.859375,9.27734375
123.48046875,-6.34765625,-30.76171875,1.46484375,1.46484375
123.484375,-12.20703125,-13.18359375,-13.18359375,-2.44140625
123.48828125,-3.41796875,-9.765625,-13.671875,15.13671875
123.4921875,-4.8828125,-13.18359375,-16.6015625,14.16015625
123.49609375,-31.73828125,-22.4609375,-21.97265625,-24.90234375
123.5,-56.15234375,-19.53125,-20.01953125,-61.03515625
123.50390625,-64.453125,-16.11328125,-20.01953125,-75.68359375
123.5078125,-71.2890625,-16.6015625,-22.94921875,-84.9609375
123.51171875,-96.19140625,-16.6015625,-22.4609375,-101.07421875
123.515625,-123.53515625,-15.625,-23.4375,-122.0703125
123.51953125,-127.9296875,-19.04296875,-25.87890625,-115.234375
123.5234375,-133.30078125,-25.390625,-33.69140625,-116.69921875
123.52734375,-150.390625,-34.1796875,-41.015625,-152.83203125
123.53125,-162.109375,-39.0625,-38.0859375,-172.8515625
123.53515625,-161.62109375,-30.2734375,-35.15625,-157.71484375
123.5390625,-159.1796875,-28.80859375,-39.0625,-161.62109375
123.54296875,-171.38671875,-35.64453125,-44.921875,-198.2421875
123.546875,-170.8984375,-33.69140625,-43.45703125,-196.2890625
123.55078125,-157.2265625,-22.94921875,-44.921875,-167.96875
123.5546875,-156.73828125,-19.04296875,-46.38671875,-172.8515625
123.55859375,-151.3671875,-22.94921875,-41.015625,-178.7109375
123.5625,-148.4375,-23.92578125,-37.109375,-174.8046875
123.56640625,-142.578125,-22.4609375,-36.1328125,-160.64453125
123.5703125,-123.046875,-18.06640625,-31.73828125,-137.6953125
123.57421875,-112.79296875,-14.6484375,-33.203125,-136.23046875
123.578125,-106.4453125,-12.20703125,-31.73828125,-126.953125
123.58203125,-94.7265625,-17.578125,-26.85546875,-110.3515625
123.5859375,-87.40234375,-21.484375,-35.64453125,-107.421875
123.58984375,-81.0546875,-20.01953125,-41.015625,-102.5390625
123.59375,-68.359375,-22.4609375,-41.015625,-101.5625
123.59765625,-61.5234375,-19.53125,-40.0390625,-88.8671875
123.6015625,-59.5703125,-16.11328125,-36.62109375,-74.21875
123.60546875,-48.33984375,-13.18359375,-26.3671875,-66.89453125
123.609375,-34.66796875,-13.671875,-26.85546875,-53.22265625
123.61328125,-24.4140625,-19.04296875,-32.71484375,-57.12890625
123.6171875,-25.390625,-17.08984375,-31.25,-52.24609375
123.62109375,-24.90234375,-6.34765625,-31.73828125,-45.8984375
123.625,-22.94921875,-7.32421875,-27.34375,-44.43359375
123.62890625,-24.90234375,-10.7421875,-20.5078125,-38.57421875
123.6328125,-15.13671875,-3.41796875,-16.11328125,-26.85546875
123.63671875,-6.34765625,-2.44140625,-15.13671875,-20.99609375
123.640625,-4.8828125,-9.765625,-15.13671875,-22.94921875
123.64453125,-8.7890625,-15.625,-21.97265625,-31.25
123.6484375,-32.2265625,-16.11328125,-23.92578125,-39.0625
123.65234375,-36.62109375,-6.8359375,-21.484375,-32.71484375
123.65625,-25.390625,-4.8828125,-26.3671875,-34.66796875
123.66015625,-28.3203125,-4.39453125,-22.94921875,-30.76171875
123.6640625,-27.34375,-2.44140625,-15.13671875,-30.76171875
123.66796875,-12.6953125,-0.48828125,-11.23046875,-22.4609375
123.671875,-16.6015625,-4.39453125,-13.18359375,-21.97265625
123.67578125,-17.578125,-6.8359375,-13.18359375,-20.01953125
123.6796875,-2.9296875,-8.7890625,-10.7421875,-15.13671875
123.68359375,-4.39453125,-13.671875,-9.27734375,-10.25390625
123.6875,-2.44140625,-5.859375,-6.8359375,0.0
123.69140625,-3.90625,-3.90625,-12.20703125,-3.90625
123.6953125,-19.04296875,-13.671875,-22.94921875,-26.3671875
123.69921875,-20.5078125,-21.97265625,-22.4609375,-22.94921875
123.703125,1.953125,-23.4375,-13.671875,11.23046875
123.70703125,2.9296875,-17.08984375,-10.7421875,14.16015625
123.7109375,-26.3671875,-12.20703125,-23.4375,-36.1328125
123.71484375,-41.9921875,-10.7421875,-26.85546875,-50.29296875
123.71875,-41.9921875,-12.20703125,-17.578125,-30.76171875
123.72265625,-36.62109375,-15.625,-13.671875,-42.48046875
123.7265625,-33.69140625,-16.11328125,-24.4140625,-51.7578125
123.73046875,-39.55078125,-20.5078125,-30.2734375,-57.6171875
123.734375,-31.25,-22.4609375,-22.4609375,-49.31640625
123.73828125,-5.859375,-8.30078125,-15.13671875,-27.34375
123.7421875,-6.34765625,-7.32421875,-17.578125,-33.69140625
123.74609375,-12.6953125,-13.671875,-19.53125,-44.921875
123.75,-15.625,-15.13671875,-16.11328125,-33.203125
123.75390625,-12.6953125,-20.99609375,-18.06640625,-23.92578125
123.7578125,-8.7890625,-19.04296875,-20.01953125,-27.34375
123.76171875,-14.6484375,-20.01953125,-21.484375,-28.3203125
123.765625,-18.5546875,-18.5546875,-22.4609375,-31.25
123.76953125,-14.6484375,-12.20703125,-20.99609375,-23.4375
123.7734375,-14.6484375,-20.99609375,-26.85546875,-21.97265625
123.77734375,-17.08984375,-22.94921875,-25.87890625,-36.62109375
123.78125,-10.25390625,-21.97265625,-23.4375,-38.57421875
123.78515625,-10.25390625,-28.80859375,-29.78515625,-22.4609375
123.7890625,-15.13671875,-29.296875,-24.4140625,-16.11328125
123.79296875,-7.32421875,-21.97265625,-22.4609375,-20.01953125
123.796875,-9.765625,-12.20703125,-23.92578125,-20.5078125
123.80078125,-20.99609375,-11.23046875,-20.99609375,-18.5546875
123.8046875,-16.11328125,-11.71875,-18.06640625,-11.23046875
123.80859375,-5.37109375,-16.11328125,-21.97265625,-7.8125
123.8125,-10.25390625,-18.06640625,-25.390625,-21.97265625
123.81640625,-22.94921875,-20.01953125,-30.2734375,-35.15625
123.8203125,-19.53125,-19.04296875,-24.4140625,-28.80859375
123.82421875,-10.7421875,-19.04296875,-18.06640625,-26.3671875
123.828125,-15.625,-15.13671875,-19.04296875,-22.4609375
123.83203125,-24.4140625,-16.6015625,-12.20703125,-20.99609375
123.8359375,-29.296875,-23.92578125,-21.97265625,-28.80859375
123.83984375,-29.296875,-25.87890625,-32.71484375,-28.80859375
123.84375,-26.3671875,-21.97265625,-22.94921875,-22.4609375
123.84765625,-24.4140625,-18.06640625,-17.578125,-17.08984375
123.8515625,-27.34375,-22.94921875,-15.13671875,-19.04296875
123.85546875,-20.5078125,-23.92578125,-7.8125,-8.7890625
123.859375,-20.01953125,-27.34375,-10.7421875,-9.27734375
123.86328125,-32.71484375,-25.390625,-17.578125,-23.4375
123.8671875,-33.203125,-21.484375,-17.578125,-22.94921875
123.87109375,-29.296875,-25.390625,-19.53125,-32.2265625
123.875,-25.87890625,-25.87890625,-19.04296875,-31.25
123.87890625,-15.625,-25.390625,-15.625,-19.53125
123.8828125,-13.18359375,-23.92578125,-20.99609375,-16.11328125
123.88671875,-7.32421875,-17.08984375,-18.06640625,-4.39453125
123.890625,-11.71875,-16.6015625,-17.578125,-15.13671875
123.89453125,-35.64453125,-30.2734375,-21.484375,-30.2734375
123.8984375,-24.90234375,-28.3203125,-20.99609375,-24.90234375
123.90234375,-5.37109375,-24.90234375,-20.01953125,-7.32421875
123.90625,-12.6953125,-28.80859375,-19.04296875,-10.7421875
123.91015625,-24.90234375,-26.3671875,-17.08984375,-34.1796875
123.9140625,-24.90234375,-24.90234375,-15.13671875,-33.69140625
123.91796875,-20.01953125,-22.94921875,-20.99609375,-28.80859375
123.921875,-19.53125,-24.4140625,-32.2265625,-37.109375
123.92578125,-18.5546875,-25.87890625,-32.2265625,-37.59765625
123.9296875,-15.13671875,-21.484375,-26.3671875,-26.85546875
123.93359375,-10.7421875,-18.5546875,-25.87890625,-18.5546875
123.9375,-10.7421875,-18.5546875,-24.4140625,-18.06640625
123.94140625,-5.37109375,-27.83203125,-20.01953125,-21.484375
123.9453125,-10.7421875,-33.203125,-20.01953125,-34.1796875
123.94921875,-28.80859375,-17.578125,-23.92578125,-41.50390625
123.953125,-27.83203125,-11.71875,-22.4609375,-34.1796875
123.95703125,-17.08984375,-10.7421875,-17.578125,-19.04296875
123.9609375,-23.4375,-11.23046875,-24.4140625,-29.296875
123.96484375,-38.57421875,-27.34375,-36.62109375,-50.29296875
123.96875,-31.73828125,-25.87890625,-28.80859375,-42.48046875
123.97265625,-24.4140625,-22.94921875,-22.94921875,-34.1796875
123.9765625,-29.78515625,-31.25,-24.4140625,-44.43359375
123.98046875,-26.85546875,-29.296875,-24.4140625,-43.45703125
123.984375,-22.94921875,-25.390625,-25.390625,-31.25
123.98828125,-11.71875,-24.90234375,-27.83203125,-22.4609375
123.9921875,-3.41796875,-20.5078125,-22.94921875,-27.83203125
123.99609375,-14.16015625,-18.5546875,-18.5546875,-24.90234375
124.0,-19.53125,-21.97265625,-14.6484375,-20.01953125
124.00390625,-18.5546875,-23.92578125,-14.16015625,-20.01953125
124.0078125,-18.5546875,-24.90234375,-18.06640625,-22.94921875
124.01171875,-27.34375,-21.484375,-20.01953125,-26.85546875
124.015625,-30.76171875,-20.99609375,-25.87890625,-28.3203125
124.01953125,-22.4609375,-22.4609375,-24.90234375,-36.62109375
124.0234375,-19.53125,-25.390625,-19.04296875,-41.015625
124.02734375,-27.34375,-20.99609375,-25.87890625,-37.109375
124.03125,-25.87890625,-20.01953125,-28.3203125,-22.94921875
124.03515625,-15.13671875,-16.11328125,-20.01953125,-13.671875
124.0390625,-15.625,-19.53125,-20.99609375,-16.6015625
124.04296875,-26.3671875,-36.1328125,-25.390625,-22.4609375
124.046875,-32.71484375,-36.1328125,-23.92578125,-30.2734375
124.05078125,-31.73828125,-31.25,-25.390625,-29.296875
124.0546875,-20.01953125,-25.87890625,-27.34375,-20.99609375
124.05859375,-16.6015625,-24.4140625,-26.85546875,-21.484375
124.0625,-24.90234375,-21.484375,-20.99609375,-16.6015625
124.06640625,-24.4140625,-20.5078125,-20.5078125,-11.71875
124.0703125,-18.5546875,-18.06640625,-18.5546875,-6.34765625
124.07421875,-24.4140625,-20.5078125,-19.53125,-4.39453125
124.078125,-27.34375,-24.90234375,-24.4140625,-22.4609375
124.08203125,-20.5078125,-22.4609375,-26.3671875,-24.90234375
124.0859375,-17.578125,-27.34375,-27.34375,-14.16015625
124.08984375,-13.671875,-29.78515625,-32.71484375,-17.08984375
124.09375,-17.08984375,-37.109375,-35.15625,-32.2265625
124.09765625,-29.296875,-37.109375,-29.296875,-42.96875
124.1015625,-28.3203125,-29.296875,-27.83203125,-40.0390625
124.10546875,-22.4609375,-28.3203125,-25.87890625,-31.73828125
124.109375,-26.3671875,-22.94921875,-21.484375,-20.01953125
124.11328125,-29.296875,-25.87890625,-21.97265625,-24.90234375
124.1171875,-29.296875,-31.25,-23.4375,-33.69140625
124.12109375,-24.90234375,-23.4375,-20.99609375,-31.25
124.125,-23.4375,-20.01953125,-21.484375,-39.0625
124.12890625,-37.109375,-23.4375,-22.4609375,-48.33984375
124.1328125,-39.55078125,-19.04296875,-23.4375,-47.36328125
124.13671875,-32.71484375,-20.01953125,-32.71484375,-43.9453125
124.140625,-31.73828125,-26.85546875,-32.2265625,-49.8046875
124.14453125,-38.0859375,-28.3203125,-32.2265625,-53.7109375
124.1484375,-42.48046875,-28.80859375,-32.2265625,-51.26953125
124.15234375,-40.52734375,-33.69140625,-22.4609375,-48.828125
124.15625,-35.15625,-31.73828125,-21.484375,-43.9453125
124.16015625,-34.1796875,-24.4140625,-18.06640625,-45.8984375
124.1640625,-46.38671875,-23.4375,-17.08984375,-41.015625
124.16796875,-40.52734375,-19.04296875,-15.13671875,-30.76171875
124.171875,-35.15625,-22.4609375,-13.18359375,-35.64453125
124.17578125,-46.875,-30.76171875,-23.92578125,-51.7578125
124.1796875,-39.0625,-21.97265625,-19.53125,-46.875
124.18359375,-30.76171875,-14.16015625,-21.97265625,-31.25
124.1875,-36.62109375,-25.390625,-33.203125,-40.52734375
124.19140625,-48.33984375,-37.109375,-29.296875,-61.03515625
124.1953125,-62.98828125,-41.50390625,-27.83203125,-61.03515625
124.19921875,-59.08203125,-34.1796875,-33.203125,-55.6640625
124.203125,-48.828125,-29.78515625,-31.25,-50.78125
124.20703125,-43.9453125,-35.15625,-22.4609375,-35.64453125
124.2109375,-43.45703125,-33.69140625,-22.94921875,-49.8046875
124.21484375,-39.55078125,-30.76171875,-25.390625,-60.05859375
124.21875,-37.59765625,-29.78515625,-23.92578125,-54.19921875
124.22265625,-41.50390625,-30.76171875,-26.3671875,-53.22265625
124.2265625,-34.1796875,-29.296875,-26.85546875,-45.8984375
124.23046875,-26.3671875,-28.80859375,-23.4375,-41.50390625
124.234375,-26.3671875,-28.80859375,-23.92578125,-43.9453125
124.23828125,-24.90234375,-25.87890625,-18.06640625,-37.59765625
124.2421875,-34.66796875,-28.3203125,-18.06640625,-37.109375
124.24609375,-40.0390625,-33.69140625,-23.4375,-47.36328125
124.25,-23.92578125,-26.85546875,-21.484375,-31.25
124.25390625,-16.6015625,-18.06640625,-25.390625,-20.01953125
124.2578125,-16.6015625,-22.94921875,-26.3671875,-20.99609375
124.26171875,-25.87890625,-28.80859375,-24.4140625,-33.203125
124.265625,-27.34375,-23.92578125,-20.5078125,-32.2265625
124.26953125,-17.08984375,-18.5546875,-22.94921875,-23.92578125
124.2734375,-15.625,-19.53125,-24.4140625,-31.73828125
124.27734375,-14.16015625,-20.5078125,-17.08984375,-24.90234375
124.28125,-18.5546875,-18.5546875,-20.99609375,-23.4375
124.28515625,-21.97265625,-17.08984375,-23.4375,-25.87890625
124.2890625,-10.7421875,-17.578125,-15.625,-18.5546875
124.29296875,-1.953125,-15.13671875,-13.671875,-18.06640625
124.296875,-1.953125,-22.4609375,-19.53125,-18.06640625
124.30078125,-4.8828125,-34.66796875,-22.94921875,-5.37109375
124.3046875,-14.6484375,-32.2265625,-29.296875,-4.8828125
124.30859375,-15.625,-24.4140625,-29.78515625,-22.94921875
124.3125,-12.6953125,-22.4609375,-22.94921875,-16.11328125
124.31640625,-24.90234375,-23.4375,-23.92578125,-6.34765625
124.3203125,-27.83203125,-25.87890625,-24.90234375,-10.25390625
124.32421875,-13.18359375,-20.99609375,-20.01953125,-8.7890625
124.328125,-11.71875,-11.23046875,-12.20703125,-4.39453125
124.33203125,-20.99609375,-11.23046875,-18.06640625,-7.8125
124.3359375,-21.484375,-18.5546875,-22.4609375,-0.48828125
124.33984375,-18.5546875,-17.578125,-18.06640625,13.671875
124.34375,-26.3671875,-17.08984375,-26.85546875,-0.48828125
124.34765625,-25.87890625,-17.578125,-26.85546875,-2.9296875
124.3515625,-9.27734375,-14.6484375,-13.18359375,12.6953125
124.35546875,-12.20703125,-20.99609375,-13.671875,6.8359375
124.359375,-27.34375,-24.90234375,-22.4609375,-3.41796875
124.36328125,-28.3203125,-26.85546875,-21.97265625,-9.765625
124.3671875,-29.78515625,-30.2734375,-19.53125,-1.46484375
124.37109375,-14.6484375,-23.4375,-13.18359375,2.44140625
124.375,-0.48828125,-13.671875,-2.44140625,-5.37109375
124.37890625,-6.8359375,-14.16015625,-14.16015625,-1.46484375
124.3828125,-20.99609375,-23.92578125,-23.4375,-4.39453125
124.38671875,-20.01953125,-34.66796875,-17.578125,9.765625
124.390625,-6.34765625,-30.76171875,-16.6015625,6.8359375
124.39453125,-12.20703125,-21.484375,-22.4609375,-10.7421875
124.3984375,-20.5078125,-20.5078125,-22.94921875,-11.23046875
124.40234375,-13.671875,-25.87890625,-19.04296875,-5.859375
124.40625,-5.859375,-26.85546875,-16.6015625,0.0
124.41015625,-3.41796875,-16.6015625,-15.13671875,-9.27734375
124.4140625,-9.27734375,-15.13671875,-18.5546875,-22.4609375
124.41796875,-8.7890625,-18.5546875,-21.484375,-21.97265625
124.421875,1.953125,-14.6484375,-20.01953125,-1.46484375
124.42578125,-4.8828125,-16.6015625,-19.53125,-6.34765625
124.4296875,-14.6484375,-26.3671875,-19.53125,-15.625
124.43359375,-11.23046875,-20.01953125,-21.97265625,-3.41796875
124.4375,-6.34765625,-15.625,-26.3671875,0.48828125
124.44140625,-18.5546875,-29.78515625,-32.71484375,-14.6484375
124.4453125,-33.69140625,-34.1796875,-32.71484375,-29.78515625
124.44921875,-33.69140625,-28.80859375,-26.85546875,-26.3671875
124.453125,-28.80859375,-23.92578125,-28.80859375,-26.3671875
124.45703125,-25.390625,-30.2734375,-31.73828125,-29.78515625
124.4609375,-27.34375,-36.1328125,-29.78515625,-41.015625
124.46484375,-23.4375,-28.3203125,-32.71484375,-39.0625
124.46875,-15.13671875,-25.390625,-24.4140625,-18.5546875
124.47265625,-7.8125,-26.85546875,-16.11328125,-16.11328125
124.4765625,-2.9296875,-19.04296875,-27.34375,-24.90234375
124.48046875,-5.859375,-15.13671875,-24.4140625,-16.6015625
124.484375,-8.30078125,-19.04296875,-13.671875,-10.25390625
124.48828125,-13.18359375,-13.18359375,-14.6484375,-9.27734375
124.4921875,-16.6015625,-14.16015625,-20.99609375,-13.671875
124.49609375,-12.6953125,-20.99609375,-20.5078125,-20.5078125
124.5,-16.6015625,-22.4609375,-23.4375,-22.94921875
124.50390625,-16.11328125,-20.5078125,-30.76171875,-25.390625
124.5078125,-23.4375,-26.3671875,-31.73828125,-28.80859375
124.51171875,-30.2734375,-28.3203125,-29.296875,-34.1796875
124.515625,-20.5078125,-20.5078125,-21.97265625,-26.3671875
124.51953125,-14.6484375,-20.01953125,-18.06640625,-24.4140625
124.5234375,-0.9765625,-16.11328125,-17.08984375,-18.06640625
124.52734375,1.953125,-12.20703125,-21.97265625,-15.13671875
124.53125,-8.7890625,-14.6484375,-20.5078125,-20.01953125
124.53515625,-4.39453125,-14.16015625,-8.30078125,-14.6484375
124.5390625,-1.953125,-21.97265625,-14.6484375,-18.06640625
124.54296875,-10.7421875,-31.25,-25.87890625,-38.0859375
124.546875,-20.5078125,-23.4375,-20.01953125,-38.57421875
124.55078125,-23.92578125,-22.4609375,-18.06640625,-30.76171875
124.5546875,-19.04296875,-27.34375,-22.4609375,-38.0859375
124.55859375,-15.625,-19.53125,-23.92578125,-41.015625
124.5625,-21.97265625,-26.3671875,-29.296875,-47.36328125
124.56640625,-26.3671875,-24.90234375,-24.90234375,-41.015625
124.5703125,-24.4140625,-15.13671875,-24.90234375,-27.83203125
124.57421875,-39.55078125,-25.390625,-29.296875,-28.3203125
124.578125,-46.38671875,-31.73828125,-25.87890625,-46.38671875
124.58203125,-38.57421875,-28.3203125,-23.4375,-54.19921875
124.5859375,-25.87890625,-20.5078125,-15.13671875,-34.66796875
124.58984375,-23.4375,-17.578125,-17.578125,-35.64453125
124.59375,-30.76171875,-21.484375,-22.94921875,-46.875
124.59765625,-34.1796875,-30.2734375,-25.87890625,-41.015625
124.6015625,-34.66796875,-40.52734375,-26.85546875,-33.203125
124.60546875,-31.73828125,-33.203125,-28.3203125,-32.2265625
124.609375,-34.66796875,-25.390625,-29.296875,-41.015625
124.61328125,-35.15625,-24.4140625,-20.99609375,-40.0390625
124.6171875,-38.0859375,-23.92578125,-19.04296875,-30.76171875
124.62109375,-39.0625,-24.4140625,-23.92578125,-39.55078125
124.625,-36.1328125,-24.90234375,-20.5078125,-41.50390625
124.62890625,-38.57421875,-23.4375,-17.08984375,-37.109375
124.6328125,-45.41015625,-27.83203125,-19.04296875,-37.59765625
124.63671875,-43.45703125,-34.66796875,-20.01953125,-21.484375
124.640625,-36.62109375,-33.203125,-27.83203125,-24.90234375
124.64453125,-49.31640625,-30.2734375,-36.1328125,-57.6171875
124.6484375,-57.6171875,-25.87890625,-36.1328125,-57.12890625
124.65234375,-61.03515625,-31.25,-34.66796875,-41.9921875
124.65625,-48.33984375,-31.73828125,-25.390625,-42.96875
124.66015625,-38.57421875,-25.87890625,-22.94921875,-46.38671875
124.6640625,-45.41015625,-27.34375,-24.4140625,-35.15625
124.66796875,-45.8984375,-30.76171875,-20.01953125,-32.71484375
124.671875,-40.52734375,-31.25,-23.4375,-43.9453125
124.67578125,-38.0859375,-32.71484375,-30.2734375,-50.78125
124.6796875,-33.203125,-34.66796875,-26.3671875,-57.6171875
124.68359375,-29.296875,-32.2265625,-20.99609375,-47.36328125
124.6875,-25.390625,-27.34375,-23.4375,-31.25
124.69140625,-17.08984375,-34.66796875,-27.34375,-24.90234375
124.6953125,-16.6015625,-37.59765625,-25.390625,-38.0859375
124.69921875,-18.5546875,-22.94921875,-26.3671875,-30.2734375
124.703125,-12.6953125,-16.11328125,-18.5546875,-7.8125
124.70703125,-14.16015625,-19.53125,-14.16015625,-25.87890625
124.7109375,-34.1796875,-28.80859375,-23.4375,-46.38671875
124.71484375,-43.45703125,-35.15625,-26.85546875,-41.50390625
124.71875,-33.203125,-30.2734375,-21.97265625,-32.71484375
124.72265625,-36.62109375,-33.203125,-22.4609375,-33.203125
124.7265625,-32.71484375,-29.78515625,-26.3671875,-38.57421875
124.73046875,-29.78515625,-28.80859375,-26.85546875,-40.0390625
124.734375,-35.15625,-27.34375,-29.78515625,-29.296875
124.73828125,-30.2734375,-17.08984375,-29.78515625,-15.13671875
124.7421875,-25.390625,-14.16015625,-23.4375,-10.7421875
124.74609375,-29.296875,-14.16015625,-27.83203125,-22.94921875
124.75,-37.109375,-21.484375,-37.109375,-40.52734375
124.75390625,-28.80859375,-21.97265625,-24.90234375,-41.015625
124.7578125,-20.01953125,-18.5546875,-20.99609375,-38.57421875
124.76171875,-20.99609375,-22.4609375,-27.34375,-31.25
124.765625,-23.92578125,-18.5546875,-24.4140625,-30.76171875
124.76953125,-20.5078125,-19.04296875,-20.01953125,-32.2265625
124.7734375,-20.99609375,-22.94921875,-24.4140625,-40.52734375
124.77734375,-15.625,-24.4140625,-24.4140625,-52.24609375
124.78125,-8.7890625,-18.06640625,-20.5078125,-34.1796875
124.78515625,-18.06640625,-13.671875,-28.3203125,-25.390625
124.7890625,-27.34375,-20.99609375,-30.76171875,-37.109375
124.79296875,-31.25,-22.94921875,-22.94921875,-40.52734375
124.796875,-39.0625,-23.92578125,-19.53125,-33.69140625
124.80078125,-39.55078125,-21.484375,-26.85546875,-28.3203125
124.8046875,-36.1328125,-21.484375,-25.390625,-23.4375
124.80859375,-34.1796875,-17.08984375,-22.4609375,-12.20703125
124.8125,-26.3671875,-9.765625,-18.06640625,-16.11328125
124.81640625,-26.3671875,-15.625,-10.7421875,-10.7421875
124.8203125,-25.87890625,-26.3671875,-14.6484375,-2.9296875
124.82421875,-27.34375,-27.83203125,-23.92578125,-28.3203125
124.828125,-32.71484375,-27.83203125,-28.80859375,-39.0625
124.83203125,-31.25,-22.4609375,-29.78515625,-31.73828125
124.8359375,-18.5546875,-16.6015625,-25.87890625,-21.97265625
124.83984375,-10.25390625,-21.484375,-21.97265625,-3.41796875
124.84375,-19.53125,-23.4375,-23.4375,-14.16015625
124.84765625,-26.85546875,-18.06640625,-21.97265625,-15.13671875
124.8515625,-18.5546875,-18.5546875,-21.484375,0.9765625
124.85546875,-15.625,-25.87890625,-25.87890625,-8.7890625
124.859375,-19.04296875,-28.3203125,-22.4609375,-12.20703125
124.86328125,-20.01953125,-26.85546875,-22.4609375,-15.625
124.8671875,-24.4140625,-28.3203125,-27.83203125,-17.578125
124.87109375,-26.85546875,-34.1796875,-29.296875,-19.04296875
124.875,-23.92578125,-26.85546875,-22.4609375,-25.87890625
124.87890625,-27.34375,-15.625,-19.04296875,-28.3203125
124.8828125,-26.3671875,-18.5546875,-23.92578125,-19.53125
124.88671875,-18.5546875,-24.90234375,-22.94921875,-2.44140625
124.890625,-16.11328125,-29.78515625,-21.97265625,-10.25390625
124.89453125,-22.4609375,-25.390625,-26.85546875,-26.3671875
124.8984375,-29.296875,-20.01953125,-24.90234375,-29.296875
124.90234375,-25.87890625,-26.3671875,-25.87890625,-26.85546875
124.90625,-5.859375,-19.04296875,-19.04296875,-5.37109375
124.91015625,-3.90625,-16.6015625,-10.25390625,-9.27734375
124.9140625,-21.484375,-25.87890625,-15.625,-27.34375
124.91796875,-20.5078125,-20.5078125,-18.5546875,-15.625
124.921875,-9.27734375,-9.765625,-23.4375,-7.32421875
124.92578125,-8.7890625,-9.27734375,-28.80859375,-7.8125
124.9296875,-7.8125,-20.01953125,-24.90234375,-11.71875
124.93359375,-7.32421875,-27.34375,-22.4609375,-15.625
124.9375,-11.71875,-24.90234375,-26.3671875,-13.18359375
124.94140625,-14.16015625,-20.01953125,-32.71484375,-15.625
124.9453125,-16.6015625,-21.484375,-28.3203125,-26.85546875
124.94921875,-7.8125,-18.06640625,-28.3203125,-21.484375
124.953125,4.8828125,-20.5078125,-27.83203125,-17.08984375
124.95703125,-3.41796875,-20.99609375,-22.94921875,-14.16015625
124.9609375,-15.625,-20.99609375,-24.90234375,-4.39453125
124.96484375,-18.06640625,-23.4375,-22.94921875,-22.4609375
124.96875,-17.578125,-18.5546875,-18.5546875,-26.85546875
124.97265625,-11.23046875,-14.6484375,-20.99609375,-16.11328125
124.9765625,-12.20703125,-16.11328125,-27.34375,-30.76171875
124.98046875,-17.08984375,-16.11328125,-27.83203125,-28.3203125
124.984375,-8.7890625,-18.06640625,-32.2265625,-4.39453125
124.98828125,-0.9765625,-17.578125,-27.34375,-8.30078125
124.9921875,-11.23046875,-23.4375,-22.4609375,-23.92578125
124.99609375,-13.671875,-29.78515625,-22.94921875,-22.4609375
125.0,-11.71875,-20.5078125,-20.99609375,-23.92578125
125.00390625,-11.71875,-20.99609375,-22.4609375,-21.97265625
125.0078125,-13.18359375,-27.83203125,-24.90234375,-21.97265625
125.01171875,-19.04296875,-27.34375,-31.73828125,-29.78515625
125.015625,-25.87890625,-28.3203125,-26.3671875,-25.390625
125.01953125,-20.99609375,-24.90234375,-22.4609375,-18.5546875
125.0234375,-11.71875,-16.11328125,-24.4140625,-19.53125
125.02734375,-25.87890625,-17.578125,-17.578125,-26.85546875
125.03125,-33.203125,-19.04296875,-15.625,-27.83203125
125.03515625,-25.87890625,-17.08984375,-13.18359375,-12.6953125
125.0390625,-18.5546875,-13.671875,-12.6953125,-9.765625
125.04296875,-30.2734375,-20.01953125,-16.6015625,-20.99609375
125.046875,-42.48046875,-23.92578125,-18.06640625,-19.04296875
125.05078125,-29.296875,-18.5546875,-21.484375,-19.53125
125.0546875,-30.2734375,-16.6015625,-24.90234375,-24.4140625
125.05859375,-36.1328125,-17.578125,-15.625,-22.4609375
125.0625,-32.71484375,-16.6015625,-9.27734375,-22.4609375
125.06640625,-33.203125,-17.08984375,-11.23046875,-24.90234375
125.0703125,-21.97265625,-20.99609375,-7.8125,-11.23046875
125.07421875,-23.4375,-21.484375,-13.671875,-17.578125
125.078125,-42.48046875,-24.4140625,-28.80859375,-43.9453125
125.08203125,-35.15625,-19.53125,-29.78515625,-39.55078125
125.0859375,-27.34375,-18.5546875,-35.64453125,-31.25
125.08984375,-29.296875,-17.578125,-26.85546875,-39.55078125
125.09375,-24.90234375,-14.16015625,-11.71875,-41.50390625
125.09765625,-20.99609375,-20.01953125,-10.25390625,-28.80859375
125.1015625,-17.578125,-17.08984375,-15.625,-13.18359375
125.10546875,-5.37109375,-13.671875,-15.625,-6.34765625
125.109375,-13.18359375,-18.06640625,-16.6015625,-18.06640625
125.11328125,-26.3671875,-20.5078125,-22.4609375,-32.2265625
125.1171875,-11.71875,-18.06640625,-17.578125,-25.390625
125.12109375,-0.9765625,-21.97265625,-18.5546875,-18.06640625
125.125,-7.8125,-27.83203125,-21.484375,-18.5546875
125.12890625,-4.8828125,-21.484375,-18.5546875,-23.92578125
125.1328125,2.44140625,-20.99609375,-20.99609375,-27.34375
125.13671875,-3.41796875,-29.296875,-26.85546875,-30.2734375
125.140625,-7.32421875,-25.390625,-29.78515625,-42.48046875
125.14453125,-5.37109375,-20.5078125,-29.78515625,-37.59765625
125.1484375,0.9765625,-17.578125,-25.87890625,-20.99609375
125.15234375,-11.23046875,-19.53125,-26.85546875,-18.06640625
125.15625,-24.4140625,-28.3203125,-32.71484375,-23.92578125
125.16015625,-21.484375,-28.80859375,-33.203125,-28.80859375
125.1640625,-21.97265625,-29.78515625,-37.59765625,-27.83203125
125.16796875,-28.3203125,-31.25,-28.3203125,-19.53125
125.171875,-30.2734375,-30.2734375,-19.53125,-5.37109375
125.17578125,-15.625,-27.83203125,-21.484375,2.9296875
125.1796875,-13.18359375,-33.203125,-20.5078125,-8.7890625
125.18359375,-19.53125,-32.71484375,-18.06640625,-11.71875
125.1875,-14.6484375,-29.78515625,-16.6015625,-0.48828125
125.19140625,-21.97265625,-32.2265625,-20.5078125,-6.8359375
125.1953125,-35.64453125,-29.296875,-19.53125,-15.625
125.19921875,-24.4140625,-16.6015625,-15.13671875,-13.18359375
125.203125,-17.578125,-12.6953125,-15.625,-6.8359375
125.20703125,-27.34375,-25.87890625,-25.390625,-16.6015625
125.2109375,-31.73828125,-31.25,-32.2265625,-23.4375
125.21484375,-37.109375,-34.1796875,-30.76171875,-15.625
125.21875,-32.71484375,-27.34375,-27.83203125,-13.671875
125.22265625,-11.23046875,-20.01953125,-27.34375,-7.8125
125.2265625,-15.13671875,-19.04296875,-26.85546875,-6.8359375
125.23046875,-33.69140625,-22.94921875,-22.4609375,-11.23046875
125.234375,-23.92578125,-23.4375,-15.13671875,-8.7890625
125.23828125,-21.484375,-16.6015625,-20.01953125,-10.7421875
125.2421875,-37.109375,-22.94921875,-26.85546875,-29.296875
125.24609375,-46.38671875,-32.71484375,-26.85546875,-36.62109375
125.25,-46.38671875,-29.296875,-25.390625,-25.87890625
125.25390625,-36.62109375,-26.3671875,-23.92578125,-20.99609375
125.2578125,-31.73828125,-26.3671875,-25.390625,-25.390625
125.26171875,-33.69140625,-25.390625,-24.4140625,-29.78515625
125.265625,-36.1328125,-24.4140625,-18.06640625,-22.94921875
125.26953125,-27.34375,-23.4375,-17.578125,-10.7421875
125.2734375,-14.6484375,-21.97265625,-23.4375,-10.25390625
125.27734375,-24.4140625,-29.296875,-27.34375,-24.90234375
125.28125,-32.2265625,-28.3203125,-25.87890625,-38.57421875
125.28515625,-24.4140625,-18.5546875,-25.390625,-30.2734375
125.2890625,-28.3203125,-24.90234375,-20.5078125,-23.4375
125.29296875,-30.2734375,-27.83203125,-18.06640625,-39.55078125
125.296875,-23.4375,-25.390625,-26.3671875,-39.55078125
125.30078125,-25.87890625,-27.83203125,-28.80859375,-26.85546875
125.3046875,-23.92578125,-27.34375,-26.85546875,-22.94921875
125.30859375,-22.4609375,-24.4140625,-23.92578125,-24.90234375
125.3125,-24.4140625,-23.4375,-23.92578125,-21.97265625
125.31640625,-29.78515625,-19.53125,-24.90234375,-18.06640625
125.3203125,-21.484375,-25.390625,-22.4609375,-24.4140625
125.32421875,-10.25390625,-32.2265625,-13.18359375,-17.578125
125.328125,-15.13671875,-29.296875,-15.625,-14.6484375
125.33203125,-16.6015625,-28.3203125,-25.390625,-22.4609375
125.3359375,-21.97265625,-30.2734375,-25.87890625,-17.08984375
125.33984375,-28.3203125,-24.90234375,-23.4375,-13.18359375
125.34375,-24.90234375,-21.97265625,-20.99609375,-12.6953125
125.34765625,-30.76171875,-27.34375,-21.484375,-10.7421875
125.3515625,-30.2734375,-23.4375,-22.4609375,-23.92578125
125.35546875,-19.53125,-21.97265625,-25.390625,-26.3671875
125.359375,-28.3203125,-25.390625,-28.80859375,-27.34375
125.36328125,-32.71484375,-26.85546875,-27.83203125,-32.2265625
125.3671875,-21.97265625,-29.296875,-24.4140625,-26.85546875
125.37109375,-16.11328125,-32.2265625,-22.94921875,-17.578125
125.375,-17.08984375,-29.78515625,-16.11328125,-2.9296875
125.37890625,-29.296875,-25.390625,-12.6953125,-11.23046875
125.3828125,-36.62109375,-34.66796875,-17.578125,-25.87890625
125.38671875,-30.76171875,-39.55078125,-22.4609375,-24.4140625
125.390625,-10.7421875,-31.25,-27.83203125,-21.97265625
125.39453125,-22.94921875,-29.296875,-27.34375,-22.94921875
125.3984375,-37.59765625,-24.4140625,-30.2734375,-26.85546875
125.40234375,-24.90234375,-17.08984375,-29.296875,-24.4140625
125.40625,-25.87890625,-28.3203125,-22.94921875,-28.3203125
125.41015625,-31.25,-31.25,-28.80859375,-34.66796875
125.4140625,-30.2734375,-24.4140625,-35.64453125,-35.64453125
125.41796875,-30.2734375,-20.5078125,-24.4140625,-24.90234375
125.421875,-25.390625,-21.97265625,-22.4609375,-24.90234375
125.42578125,-20.99609375,-20.99609375,-29.78515625,-28.3203125
125.4296875,-22.4609375,-19.53125,-27.34375,-29.296875
125.43359375,-38.0859375,-23.92578125,-32.71484375,-45.41015625
125.4375,-33.69140625,-23.4375,-27.34375,-33.69140625
125.44140625,-21.97265625,-28.3203125,-17.578125,-24.90234375
125.4453125,-28.80859375,-29.78515625,-22.94921875,-44.43359375
125.44921875,-18.5546875,-25.390625,-27.34375,-41.015625
125.453125,-20.5078125,-28.80859375,-25.87890625,-30.2734375
125.45703125,-30.2734375,-31.73828125,-30.76171875,-41.9921875
125.4609375,-22.4609375,-34.66796875,-33.203125,-48.828125
125.46484375,-21.484375,-34.66796875,-25.390625,-41.015625
125.46875,-15.625,-30.76171875,-24.4140625,-20.5078125
125.47265625,-9.27734375,-26.85546875,-26.3671875,-6.34765625
125.4765625,-8.30078125,-23.4375,-25.87890625,-11.71875
125.48046875,-17.578125,-28.80859375,-24.90234375,-17.08984375
125.484375,-20.99609375,-32.2265625,-23.4375,-20.99609375
125.48828125,-2.44140625,-23.92578125,-19.53125,-34.1796875
125.4921875,-11.71875,-21.97265625,-19.53125,-37.109375
125.49609375,-26.3671875,-23.4375,-20.5078125,-28.80859375
125.5,-30.76171875,-29.78515625,-20.01953125,-27.83203125
125.50390625,-19.53125,-25.390625,-26.3671875,-37.109375
125.5078125,-10.7421875,-20.01953125,-27.83203125,-28.3203125
125.51171875,-21.484375,-20.99609375,-15.625,-18.5546875
125.515625,-29.78515625,-15.13671875,-11.23046875,-17.578125
125.51953125,-27.83203125,-23.4375,-20.01953125,-19.04296875
125.5234375,-11.23046875,-29.78515625,-22.94921875,-32.2265625
125.52734375,-6.8359375,-20.99609375,-24.4140625,-45.41015625
125.53125,-20.01953125,-19.53125,-24.90234375,-33.69140625
125.53515625,-20.5078125,-28.3203125,-16.6015625,-28.3203125
125.5390625,-15.625,-34.1796875,-19.53125,-40.0390625
125.54296875,-23.4375,-34.1796875,-30.76171875,-53.22265625
125.546875,-30.2734375,-29.296875,-26.3671875,-52.24609375
125.55078125,-23.4375,-18.5546875,-15.13671875,-27.34375
125.5546875,-14.6484375,-11.23046875,-17.578125,-25.390625
125.55859375,-5.859375,-3.41796875,-19.04296875,-25.390625
125.5625,-11.23046875,-8.30078125,-24.4140625,-37.59765625
125.56640625,-11.23046875,-21.484375,-24.90234375,-36.62109375
125.5703125,-7.8125,-23.92578125,-12.20703125,-9.765625
125.57421875,-15.625,-23.4375,-16.11328125,-33.203125
125.578125,-17.08984375,-22.94921875,-25.390625,-39.0625
125.58203125,-10.25390625,-22.94921875,-25.390625,-24.4140625
125.5859375,-0.48828125,-19.04296875,-22.94921875,-27.34375
125.58984375,-17.08984375,-17.578125,-19.53125,-21.97265625
125.59375,-27.83203125,-13.18359375,-13.18359375,-9.27734375
125.59765625,-22.4609375,-13.671875,-15.625,-13.18359375
125.6015625,-21.484375,-13.18359375,-20.99609375,-18.5546875
125.60546875,-28.3203125,-12.20703125,-24.4140625,-15.625
125.609375,-32.2265625,-16.11328125,-22.94921875,-19.53125
125.61328125,-26.3671875,-20.01953125,-13.671875,-13.18359375
125.6171875,-27.83203125,-18.5546875,-18.5546875,-6.8359375
125.62109375,-20.5078125,-20.01953125,-25.390625,-14.16015625
125.625,-17.08984375,-23.92578125,-26.85546875,-13.18359375
125.62890625,-30.76171875,-22.94921875,-25.87890625,-16.11328125
125.6328125,-34.66796875,-20.99609375,-28.3203125,-17.578125
125.63671875,-29.78515625,-21.484375,-26.85546875,-9.27734375
125.640625,-27.34375,-19.04296875,-24.4140625,-5.859375
125.64453125,-22.94921875,-15.625,-25.87890625,-9.27734375
125.6484375,-24.4140625,-13.671875,-16.6015625,-23.4375
125.65234375,-29.296875,-7.32421875,-12.20703125,-16.6015625
125.65625,-21.97265625,-9.765625,-19.53125,-5.859375
125.66015625,-31.73828125,-20.99609375,-22.94921875,-10.7421875
125.6640625,-55.17578125,-29.78515625,-15.625,-6.34765625
125.66796875,-53.7109375,-26.3671875,-22.4609375,-1.46484375
125.671875,-14.6484375,-19.53125,-23.4375,10.7421875
125.67578125,0.9765625,-21.484375,-25.390625,9.27734375
125.6796875,-12.6953125,-20.01953125,-30.2734375,1.953125
125.68359375,-4.8828125,-17.578125,-19.53125,18.5546875
125.6875,-7.8125,-26.85546875,-10.25390625,23.92578125
125.69140625,-12.6953125,-25.390625,-11.71875,27.83203125
125.6953125,-11.71875,-20.01953125,-18.06640625,14.6484375
125.69921875,-20.5078125,-22.94921875,-20.99609375,19.53125
125.703125,-37.59765625,-25.390625,-21.97265625,37.109375
125.70703125,-38.0859375,-17.08984375,-16.11328125,37.109375
125.7109375,-34.1796875,-7.8125,-20.5078125,27.34375
125.71484375,-37.59765625,-23.4375,-27.83203125,33.69140625
125.71875,-30.2734375,-35.15625,-28.80859375,63.96484375
125.72265625,-30.76171875,-31.73828125,-27.83203125,69.82421875
125.7265625,-39.0625,-26.3671875,-20.5078125,53.7109375
125.73046875,-34.1796875,-20.01953125,-12.6953125,58.59375
125.734375,-26.3671875,-23.92578125,-10.7421875,63.4765625
125.73828125,-22.94921875,-30.76171875,-11.71875,69.82421875
125.7421875,-27.34375,-34.1796875,-13.18359375,56.640625
125.74609375,-42.96875,-35.15625,-18.06640625,47.36328125
125.75,-34.66796875,-33.69140625,-20.99609375,62.01171875
125.75390625,-21.484375,-26.3671875,-24.4140625,56.15234375
125.7578125,-38.0859375,-28.3203125,-27.34375,54.6875
125.76171875,-50.29296875,-28.3203125,-24.4140625,56.15234375
125.765625,-47.36328125,-28.3203125,-19.53125,46.875
125.76953125,-43.45703125,-35.64453125,-20.01953125,45.41015625
125.7734375,-24.90234375,-30.2734375,-9.765625,48.33984375
125.77734375,-26.3671875,-29.78515625,-7.8125,52.24609375
125.78125,-36.62109375,-24.4140625,-12.6953125,57.12890625
125.78515625,-27.34375,-26.85546875,-17.08984375,51.26953125
125.7890625,-18.5546875,-36.1328125,-19.04296875,41.015625
125.79296875,-27.34375,-29.78515625,-20.99609375,27.83203125
125.796875,-30.2734375,-25.87890625,-18.5546875,32.71484375
125.80078125,-30.2734375,-32.2265625,-15.13671875,50.78125
125.8046875,-32.2265625,-33.203125,-25.390625,38.57421875
125.80859375,-33.69140625,-31.73828125,-28.3203125,18.5546875
125.8125,-38.0859375,-28.3203125,-25.390625,17.578125
125.81640625,-32.2265625,-27.34375,-24.90234375,30.2734375
125.8203125,-27.34375,-34.66796875,-23.4375,41.015625
125.82421875,-29.78515625,-33.69140625,-21.484375,43.45703125
125.828125,-41.015625,-21.97265625,-20.01953125,41.50390625
125.83203125,-40.0390625,-20.99609375,-22.94921875,48.33984375
125.8359375,-14.6484375,-29.296875,-13.18359375,58.10546875
125.83984375,-23.4375,-33.203125,-11.71875,50.29296875
125.84375,-41.015625,-30.76171875,-21.97265625,30.2734375
125.84765625,-28.80859375,-23.4375,-26.3671875,19.53125
125.8515625,-18.5546875,-19.53125,-25.87890625,26.85546875
125.85546875,-26.85546875,-23.4375,-22.94921875,40.52734375
125.859375,-30.76171875,-26.3671875,-14.6484375,43.9453125
125.86328125,-25.87890625,-21.484375,-11.71875,32.71484375
125.8671875,-18.06640625,-18.5546875,-11.71875,42.48046875
125.87109375,-11.23046875,-20.99609375,-15.13671875,49.8046875
125.875,-17.08984375,-20.99609375,-22.4609375,34.66796875
125.87890625,-22.4609375,-21.484375,-20.01953125,19.53125
125.8828125,-20.99609375,-30.2734375,-10.25390625,24.90234375
125.88671875,-14.6484375,-31.73828125,-11.71875,46.38671875
125.890625,-6.34765625,-23.4375,-15.13671875,41.50390625
125.89453125,-10.25390625,-16.11328125,-16.6015625,29.78515625
125.8984375,-26.85546875,-22.94921875,-17.08984375,29.296875
125.90234375,-17.578125,-24.90234375,-13.671875,35.15625
125.90625,-10.25390625,-17.08984375,-18.06640625,25.87890625
125.91015625,-25.87890625,-21.97265625,-22.94921875,-2.44140625
125.9140625,-28.80859375,-25.87890625,-24.90234375,15.13671875
125.91796875,-21.97265625,-21.484375,-17.08984375,35.15625
125.921875,-7.32421875,-23.92578125,-11.71875,33.69140625
125.92578125,3.41796875,-24.90234375,-17.08984375,28.3203125
125.9296875,-7.32421875,-21.484375,-17.08984375,19.04296875
125.93359375,-20.99609375,-19.04296875,-20.99609375,8.7890625
125.9375,-7.32421875,-21.484375,-23.4375,17.08984375
125.94140625,-7.32421875,-14.16015625,-19.53125,22.94921875
125.9453125,-18.06640625,-14.6484375,-24.90234375,12.20703125
125.94921875,-26.85546875,-30.76171875,-26.3671875,10.7421875
125.953125,-15.625,-25.87890625,-21.97265625,23.92578125
125.95703125,-6.34765625,-21.97265625,-17.578125,36.1328125
125.9609375,-20.01953125,-27.34375,-17.578125,29.296875
125.96484375,-20.5078125,-24.4140625,-17.08984375,20.01953125
125.96875,-18.5546875,-15.625,-15.625,21.97265625
125.97265625,-20.5078125,-16.6015625,-19.53125,20.5078125
125.9765625,-29.296875,-24.4140625,-21.97265625,7.32421875
125.98046875,-35.15625,-30.76171875,-15.13671875,7.8125
125.984375,-21.484375,-22.94921875,-12.20703125,26.3671875
125.98828125,0.0,-19.04296875,-21.97265625,17.578125
125.9921875,-7.32421875,-12.6953125,-23.4375,5.37109375
125.99609375,-29.78515625,-16.11328125,-17.578125,10.7421875
126.0,-33.69140625,-28.80859375,-24.4140625,9.27734375
126.00390625,-22.94921875,-27.34375,-24.4140625,20.01953125
126.0078125,-28.3203125,-34.1796875,-23.92578125,8.7890625
126.01171875,-38.57421875,-30.76171875,-28.80859375,0.48828125
126.015625,-28.80859375,-26.85546875,-22.4609375,7.32421875
126.01953125,-28.80859375,-28.3203125,-21.97265625,-6.8359375
126.0234375,-26.85546875,-18.5546875,-26.85546875,-8.7890625
126.02734375,-11.23046875,-21.484375,-25.87890625,-0.48828125
126.03125,-25.390625,-32.2265625,-24.90234375,-5.37109375
126.03515625,-34.1796875,-28.80859375,-24.90234375,4.39453125
126.0390625,-20.01953125,-24.4140625,-30.76171875,8.30078125
126.04296875,-21.484375,-22.4609375,-31.25,-2.9296875
126.046875,-22.4609375,-21.484375,-20.5078125,3.90625
126.05078125,-30.2734375,-24.90234375,-14.16015625,4.8828125
126.0546875,-27.83203125,-24.90234375,-15.625,2.44140625
126.05859375,-20.99609375,-24.4140625,-17.578125,1.46484375
126.0625,-27.83203125,-27.83203125,-23.4375,-3.90625
126.06640625,-20.5078125,-26.3671875,-26.85546875,3.41796875
126.0703125,-11.23046875,-24.4140625,-28.80859375,7.8125
126.07421875,-20.5078125,-25.87890625,-28.3203125,-4.8828125
126.078125,-29.296875,-22.4609375,-27.83203125,-6.34765625
126.08203125,-25.87890625,-17.578125,-35.64453125,-13.671875
126.0859375,-24.4140625,-18.5546875,-35.64453125,-7.8125
126.08984375,-29.78515625,-24.90234375,-22.94921875,11.71875
126.09375,-26.3671875,-34.66796875,-24.4140625,-13.671875
126.09765625,-30.2734375,-39.55078125,-29.78515625,-20.01953125
126.1015625,-46.875,-35.64453125,-27.34375,1.953125
126.10546875,-30.76171875,-29.78515625,-19.53125,6.34765625
126.109375,-17.08984375,-26.85546875,-23.4375,-5.37109375
126.11328125,-25.87890625,-23.92578125,-32.2265625,-8.7890625
126.1171875,-21.97265625,-30.2734375,-32.2265625,0.48828125
126.12109375,-9.765625,-27.34375,-28.3203125,1.46484375
126.125,-20.99609375,-15.13671875,-26.3671875,-13.18359375
126.12890625,-27.83203125,-29.296875,-29.78515625,-12.6953125
126.1328125,-15.625,-34.1796875,-23.92578125,18.5546875
126.13671875,-12.20703125,-25.390625,-20.5078125,17.08984375
126.140625,-25.87890625,-27.34375,-23.92578125,-8.7890625
126.14453125,-35.15625,-23.92578125,-22.4609375,-14.16015625
126.1484375,-39.0625,-16.6015625,-17.08984375,-13.671875
126.15234375,-32.2265625,-30.76171875,-21.484375,0.9765625
126.15625,-30.2734375,-27.34375,-23.92578125,-4.39453125
126.16015625,-21.97265625,-15.625,-19.53125,-6.34765625
126.1640625,-15.625,-17.578125,-23.92578125,-2.44140625
126.16796875,-19.53125,-18.5546875,-20.99609375,1.953125
126.171875,-18.5546875,-14.6484375,-14.6484375,15.625
126.17578125,-23.4375,-18.5546875,-19.04296875,2.9296875
126.1796875,-22.94921875,-30.2734375,-24.90234375,-11.71875
126.18359375,-23.92578125,-20.01953125,-22.4609375,-2.44140625
126.1875,-19.04296875,-5.859375,-15.625,11.71875
126.19140625,-25.390625,-19.53125,-18.06640625,-9.27734375
126.1953125,-48.828125,-34.66796875,-25.390625,-18.5546875
126.19921875,-43.45703125,-29.296875,-31.25,-5.859375
126.203125,-9.27734375,-23.4375,-21.97265625,3.41796875
126.20703125,-12.6953125,-20.5078125,-10.7421875,1.46484375
126.2109375,-24.90234375,-23.92578125,-12.20703125,-5.37109375
126.21484375,-25.87890625,-26.3671875,-21.484375,-15.13671875
126.21875,-22.94921875,-12.6953125,-22.94921875,-5.859375
126.22265625,-16.11328125,-9.765625,-23.92578125,1.953125
126.2265625,-25.390625,-23.92578125,-25.390625,-12.6953125
126.23046875,-35.15625,-25.87890625,-27.34375,-24.90234375
126.234375,-31.73828125,-14.16015625,-30.76171875,-14.6484375
126.23828125,-25.390625,-17.578125,-22.4609375,10.7421875
126.2421875,-15.13671875,-27.34375,-13.671875,14.16015625
126.24609375,-15.13671875,-23.4375,-12.20703125,10.7421875
126.25,-18.06640625,-20.5078125,-12.6953125,-6.8359375
126.25390625,-10.7421875,-16.11328125,-16.11328125,-7.8125
126.2578125,-18.06640625,-17.08984375,-22.4609375,-6.8359375
126.26171875,-25.87890625,-19.53125,-16.6015625,-19.53125
126.265625,-25.87890625,-24.4140625,-16.11328125,-7.32421875
126.26953125,-17.578125,-27.34375,-20.01953125,-0.48828125
126.2734375,-28.3203125,-20.99609375,-18.5546875,-17.08984375
126.27734375,-38.0859375,-23.92578125,-20.5078125,-22.4609375
126.28125,-32.71484375,-25.87890625,-21.484375,-7.8125
126.28515625,-26.3671875,-29.78515625,-24.4140625,-15.625
126.2890625,-23.4375,-27.34375,-22.94921875,-22.94921875
126.29296875,-24.4140625,-21.484375,-14.16015625,-19.53125
126.296875,-24.90234375,-20.99609375,-15.625,-26.85546875
126.30078125,-20.01953125,-17.08984375,-20.5078125,-14.6484375
126.3046875,-34.1796875,-24.90234375,-27.34375,-10.25390625
126.30859375,-47.8515625,-28.80859375,-24.4140625,-31.25
126.3125,-25.390625,-24.4140625,-20.99609375,-22.94921875
126.31640625,-28.80859375,-32.71484375,-29.78515625,-10.7421875
126.3203125,-31.73828125,-39.55078125,-27.83203125,-11.71875
126.32421875,-26.85546875,-32.71484375,-27.34375,-23.4375
126.328125,-28.80859375,-22.94921875,-24.90234375,-27.34375
126.33203125,-32.2265625,-23.92578125,-20.99609375,-20.01953125
126.3359375,-16.6015625,-23.4375,-16.11328125,-9.765625
126.33984375,0.9765625,-13.18359375,-14.6484375,-10.25390625
126.34375,-16.6015625,-12.20703125,-20.01953125,-27.83203125
126.34765625,-45.41015625,-22.4609375,-28.3203125,-35.64453125
126.3515625,-35.64453125,-26.3671875,-34.1796875,-16.11328125
126.35546875,-13.18359375,-20.5078125,-34.66796875,-8.7890625
126.359375,-12.6953125,-16.6015625,-32.71484375,-28.3203125
126.36328125,-26.3671875,-22.4609375,-30.76171875,-28.3203125
126.3671875,-29.78515625,-25.87890625,-23.4375,-16.11328125
126.37109375,-29.78515625,-24.4140625,-20.01953125,-16.6015625
126.375,-37.59765625,-22.4609375,-20.5078125,-14.16015625
126.37890625,-50.29296875,-22.4609375,-20.5078125,-25.87890625
126.3828125,-40.52734375,-20.5078125,-15.13671875,-23.4375
126.38671875,-13.18359375,-10.25390625,-1.953125,-8.7890625
126.390625,-19.04296875,-7.8125,-11.23046875,-25.87890625
126.39453125,-49.31640625,-11.71875,-36.62109375,-31.25
126.3984375,-49.31640625,-27.83203125,-36.1328125,-25.87890625
126.40234375,-31.73828125,-39.0625,-23.92578125,-12.20703125
126.40625,-29.78515625,-30.76171875,-21.97265625,-9.765625
126.41015625,-43.45703125,-8.30078125,-35.15625,-36.1328125
126.4140625,-44.43359375,-5.859375,-37.109375,-51.26953125
126.41796875,-15.13671875,-25.390625,-20.5078125,-37.109375
126.421875,-13.671875,-27.83203125,-22.4609375,-29.296875
126.42578125,-31.25,-17.578125,-29.78515625,-40.0390625
126.4296875,-25.390625,-17.578125,-29.296875,-34.1796875
126.43359375,-17.578125,-15.13671875,-25.390625,-23.4375
126.4375,-18.5546875,-9.27734375,-15.13671875,-21.484375
126.44140625,-20.5078125,-23.92578125,-11.71875,-30.76171875
126.4453125,-27.83203125,-33.69140625,-23.4375,-43.9453125
126.44921875,-34.1796875,-32.71484375,-28.80859375,-28.3203125
126.453125,-25.87890625,-27.83203125,-20.01953125,-19.04296875
126.45703125,-20.99609375,-23.4375,-24.90234375,-41.50390625
126.4609375,-24.90234375,-21.484375,-29.296875,-43.9453125
126.46484375,-32.2265625,-34.66796875,-20.99609375,-31.73828125
126.46875,-28.3203125,-36.1328125,-19.53125,-22.94921875
126.47265625,-19.53125,-24.90234375,-20.99609375,-24.4140625
126.4765625,-15.625,-27.34375,-12.6953125,-18.06640625
126.48046875,-16.6015625,-27.83203125,-8.7890625,-19.04296875
126.484375,-32.2265625,-18.06640625,-20.5078125,-23.4375
126.48828125,-23.4375,-23.92578125,-21.484375,-22.94921875
126.4921875,-15.13671875,-27.83203125,-28.80859375,-34.66796875
126.49609375,-26.85546875,-21.484375,-29.296875,-36.1328125
126.5,-27.83203125,-26.3671875,-22.94921875,-24.90234375
126.50390625,-27.34375,-27.83203125,-30.2734375,-20.01953125
126.5078125,-22.4609375,-28.80859375,-34.1796875,-33.69140625
126.51171875,-19.04296875,-38.57421875,-26.3671875,-40.0390625
126.515625,-24.90234375,-26.85546875,-18.5546875,-30.76171875
126.51953125,-26.3671875,-24.90234375,-15.13671875,-35.15625
126.5234375,-29.78515625,-29.296875,-23.92578125,-51.7578125
126.52734375,-42.48046875,-17.578125,-28.80859375,-53.7109375
126.53125,-25.87890625,-20.5078125,-19.53125,-35.15625
126.53515625,-16.11328125,-14.16015625,-20.01953125,-26.85546875
126.5390625,-25.87890625,-20.5078125,-34.66796875,-43.45703125
126.54296875,-46.38671875,-15.13671875,-40.0390625,-70.3125
126.546875,-43.45703125,-15.13671875,-32.71484375,-55.6640625
126.55078125,-20.01953125,-22.4609375,-29.78515625,-30.2734375
126.5546875,-31.25,-8.30078125,-35.15625,-40.0390625
126.55859375,-30.2734375,-13.671875,-35.15625,-37.109375
126.5625,-28.80859375,-13.671875,-25.390625,-41.50390625
126.56640625,-29.296875,-15.625,-22.4609375,-34.1796875
126.5703125,-23.4375,-15.13671875,-27.34375,-28.3203125
126.57421875,-16.11328125,-17.578125,-22.94921875,-20.01953125
126.578125,-25.87890625,-18.5546875,-19.53125,-21.97265625
126.58203125,-31.73828125,-1.46484375,-22.94921875,-38.57421875
126.5859375,-19.04296875,-10.25390625,-26.85546875,-28.3203125
126.58984375,-12.20703125,-15.13671875,-27.83203125,-16.6015625
126.59375,-23.4375,-22.4609375,-22.4609375,-29.78515625
126.59765625,-37.59765625,-37.109375,-17.578125,-43.45703125
126.6015625,-5.37109375,-33.203125,-16.11328125,-18.5546875
126.60546875,5.37109375,-23.4375,-22.94921875,-15.13671875
126.609375,-9.765625,-19.04296875,-26.3671875,-33.203125
126.61328125,-16.11328125,-14.16015625,-16.6015625,-39.0625
126.6171875,-27.34375,-2.9296875,-20.01953125,-36.1328125
126.62109375,-25.390625,-22.94921875,-23.4375,-13.18359375
126.625,-13.671875,-50.78125,-12.6953125,0.0
126.62890625,-20.5078125,-18.06640625,-17.08984375,-17.578125
126.6328125,-32.2265625,-17.578125,-25.390625,-25.390625
126.63671875,-23.92578125,-26.85546875,-26.85546875,-21.484375
126.640625,-22.94921875,-20.5078125,-27.34375,-23.4375
126.64453125,-31.25,-32.71484375,-11.23046875,-33.203125
126.6484375,-10.25390625,-31.25,-9.27734375,-27.34375
126.65234375,-4.8828125,-11.23046875,-24.4140625,-17.08984375
126.65625,-15.625,-7.8125,-25.390625,-27.34375
126.66015625,-26.85546875,-34.1796875,-28.80859375,-32.71484375
126.6640625,-28.80859375,-26.3671875,-31.25,-41.50390625
126.66796875,-21.484375,-16.11328125,-26.85546875,-39.55078125
126.671875,-37.59765625,-23.92578125,-20.99609375,-22.4609375
126.67578125,-39.0625,-24.90234375,-12.20703125,-27.83203125
126.6796875,-12.20703125,-35.64453125,-21.97265625,-20.99609375
126.68359375,-8.7890625,-42.96875,-17.08984375,-26.3671875
126.6875,-14.6484375,-27.34375,-13.671875,-18.5546875
126.69140625,-25.390625,-15.625,-18.5546875,-27.34375
126.6953125,-50.29296875,25.87890625,-24.90234375,-60.05859375
126.69921875,-30.2734375,-11.71875,-17.578125,-19.53125
126.703125,0.0,-65.4296875,-5.37109375,-14.16015625
126.70703125,-10.7421875,-32.2265625,-25.390625,-35.15625
126.7109375,-15.13671875,-29.78515625,-28.80859375,-21.97265625
126.71484375,-41.015625,-25.87890625,-28.80859375,-26.3671875
126.71875,-46.38671875,-31.25,-24.4140625,-25.390625
126.72265625,-19.04296875,-32.71484375,-15.13671875,-16.6015625
126.7265625,-3.41796875,-20.01953125,-18.5546875,0.48828125
126.73046875,-24.90234375,-22.4609375,-17.578125,-11.71875
126.734375,-37.59765625,-21.484375,-24.90234375,-23.92578125
126.73828125,-65.4296875,-9.765625,-28.80859375,-48.828125
126.7421875,-44.43359375,-41.015625,-21.97265625,-58.10546875
126.74609375,22.4609375,-20.01953125,-18.06640625,-16.11328125
126.75,-42.48046875,-1.46484375,-13.18359375,-31.73828125
126.75390625,-79.1015625,-11.71875,-33.203125,-44.921875
126.7578125,-20.01953125,-21.484375,-41.015625,-34.66796875
126.76171875,-8.7890625,-25.87890625,-19.04296875,-12.20703125
126.765625,-51.26953125,-30.2734375,-22.4609375,-45.8984375
126.76953125,-72.75390625,-24.90234375,-7.32421875,-80.078125
126.7734375,-53.7109375,-5.37109375,-9.27734375,-47.8515625
126.77734375,-39.55078125,-10.25390625,-34.66796875,-51.26953125
126.78125,-35.15625,-2.9296875,-36.1328125,-36.62109375
126.78515625,-40.0390625,-23.92578125,-27.83203125,-11.23046875
126.7890625,-27.34375,-29.78515625,-18.06640625,-4.8828125
126.79296875,-7.32421875,-22.4609375,-24.90234375,0.48828125
126.796875,-33.203125,-29.296875,-26.3671875,-30.76171875
126.80078125,-35.15625,-30.76171875,-19.04296875,-52.24609375
126.8046875,-51.26953125,-21.97265625,-27.34375,-56.640625
126.80859375,-64.453125,-39.55078125,-35.64453125,-92.28515625
126.8125,-119.62890625,35.64453125,-32.2265625,-103.515625
126.81640625,-61.03515625,28.80859375,-38.0859375,-57.6171875
126.8203125,10.25390625,-67.3828125,-0.48828125,-36.62109375
126.82421875,-19.53125,-23.4375,-9.27734375,-18.06640625
126.828125,-31.25,-22.4609375,-26.3671875,-17.578125
126.83203125,-14.6484375,-39.55078125,-16.11328125,-19.04296875
126.8359375,-31.25,-23.92578125,-14.16015625,-61.5234375
126.83984375,-67.87109375,-29.296875,4.8828125,-111.81640625
126.84375,-41.015625,-12.20703125,-18.06640625,-48.33984375
126.84765625,-25.390625,-26.3671875,-30.76171875,-7.8125
126.8515625,-11.23046875,-48.33984375,-15.13671875,-13.18359375
126.85546875,-21.97265625,-27.83203125,-13.18359375,-27.34375
126.859375,-44.43359375,-14.6484375,-37.59765625,-42.96875
126.86328125,-26.85546875,-32.71484375,-16.11328125,-29.296875
126.8671875,-11.71875,-29.296875,-13.671875,-10.25390625
126.87109375,-0.48828125,-17.578125,-33.203125,34.66796875
126.875,7.8125,-28.3203125,-20.01953125,2.44140625
126.87890625,-45.8984375,-6.34765625,-28.80859375,-36.62109375
126.8828125,-52.734375,-14.6484375,-31.73828125,-4.8828125
126.88671875,20.5078125,-22.4609375,-20.01953125,11.71875
126.890625,-6.34765625,-11.71875,-26.3671875,-29.296875
126.89453125,-22.4609375,-43.45703125,-20.5078125,-58.10546875
126.8984375,17.578125,-47.8515625,-19.53125,-16.11328125
126.90234375,8.7890625,-27.34375,-35.15625,6.34765625
126.90625,-7.32421875,-17.578125,-27.83203125,-9.765625
126.91015625,-11.23046875,-21.484375,-34.1796875,-26.85546875
126.9140625,-29.78515625,-22.4609375,-22.4609375,-35.64453125
126.91796875,-32.2265625,-25.87890625,-18.06640625,-25.87890625
126.921875,-23.92578125,-23.4375,-36.62109375,-10.25390625
126.92578125,-8.7890625,-32.2265625,-20.01953125,7.8125
126.9296875,-9.27734375,-30.76171875,-22.4609375,23.92578125
126.93359375,-27.83203125,-32.2265625,-22.4609375,-9.765625
126.9375,-36.1328125,-32.2265625,-7.32421875,-27.83203125
126.94140625,-24.4140625,-26.85546875,-23.4375,7.32421875
126.9453125,-22.94921875,-18.06640625,-35.64453125,-11.71875
126.94921875,-15.625,-12.20703125,-24.4140625,-8.7890625
126.953125,3.41796875,-22.4609375,-21.97265625,10.7421875
126.95703125,3.90625,-27.83203125,-14.16015625,4.39453125
126.9609375,-2.44140625,-24.4140625,-22.4609375,1.953125
126.96484375,-11.23046875,-17.578125,-38.57421875,-4.39453125
126.96875,1.953125,-20.01953125,-21.484375,1.953125
126.97265625,9.27734375,-19.04296875,-20.5078125,22.4609375
126.9765625,-13.18359375,-19.53125,-31.73828125,9.27734375
126.98046875,-9.27734375,-25.390625,-22.94921875,5.37109375
126.984375,-0.9765625,-22.4609375,-15.13671875,7.32421875
126.98828125,-0.48828125,-18.5546875,-19.04296875,5.37109375
126.9921875,1.46484375,-23.4375,-20.5078125,7.32421875
126.99609375,-1.953125,-25.87890625,-22.4609375,-5.859375
127.0,-15.13671875,-20.99609375,-14.16015625,-21.484375
127.00390625,-9.765625,-17.578125,-24.90234375,-7.8125
127.0078125,-5.37109375,-23.4375,-36.62109375,21.484375
127.01171875,-12.20703125,-33.69140625,-20.99609375,16.6015625
127.015625,-0.48828125,-26.3671875,-15.13671875,7.8125
127.01953125,-2.9296875,-11.23046875,-21.97265625,16.11328125
127.0234375,-8.30078125,-11.71875,-24.4140625,4.39453125
127.02734375,-7.8125,-22.94921875,-27.83203125,8.7890625
127.03125,-22.4609375,-21.97265625,-26.3671875,7.32421875
127.03515625,-20.5078125,-22.4609375,-25.87890625,-3.41796875
127.0390625,-4.8828125,-27.34375,-26.3671875,6.8359375
127.04296875,0.0,-10.25390625,-15.625,8.7890625
127.046875,4.39453125,-3.41796875,-11.23046875,16.11328125
127.05078125,5.859375,-16.11328125,-16.6015625,22.4609375
127.0546875,1.46484375,-21.484375,-19.53125,8.30078125
127.05859375,2.44140625,-21.97265625,-20.99609375,6.8359375
127.0625,-10.7421875,-23.92578125,-21.97265625,10.25390625
127.06640625,-23.92578125,-16.11328125,-20.5078125,4.39453125
127.0703125,-6.34765625,-8.30078125,-18.5546875,7.32421875
127.07421875,10.7421875,-7.8125,-25.87890625,5.859375
127.078125,5.37109375,-15.625,-24.90234375,-0.48828125
127.08203125,-0.9765625,-25.87890625,-15.13671875,9.27734375
127.0859375,0.0,-25.87890625,-17.578125,13.18359375
127.08984375,-4.8828125,-28.3203125,-24.90234375,-1.953125
127.09375,-11.23046875,-32.2265625,-30.2734375,-16.6015625
127.09765625,-10.7421875,-31.25,-25.87890625,-13.18359375
127.1015625,-3.90625,-22.4609375,-10.7421875,8.30078125
127.10546875,0.9765625,-13.18359375,-12.20703125,9.765625
127.109375,2.44140625,-14.16015625,-21.97265625,-12.20703125
127.11328125,-3.41796875,-11.23046875,-23.92578125,-18.06640625
127.1171875,1.46484375,-7.8125,-22.94921875,7.32421875
127.12109375,5.37109375,-3.41796875,-14.16015625,0.0
127.125,0.0,-14.16015625,-10.7421875,-19.04296875
127.12890625,-6.8359375,-25.87890625,-18.5546875,-14.6484375
127.1328125,-13.671875,-16.6015625,-21.97265625,-17.578125
127.13671875,-11.23046875,-17.578125,-16.6015625,-20.99609375
127.140625,-10.25390625,-25.87890625,-17.08984375,-26.85546875
127.14453125,-17.578125,-17.578125,-21.97265625,-30.76171875
127.1484375,-20.99609375,-16.11328125,-24.90234375,-29.296875
127.15234375,-20.99609375,-17.578125,-19.53125,-25.390625
127.15625,-19.53125,-16.6015625,-19.53125,-33.203125
127.16015625,-15.625,-26.85546875,-20.01953125,-38.57421875
127.1640625,-23.92578125,-24.90234375,-25.390625,-45.41015625
127.16796875,-10.25390625,-15.13671875,-12.6953125,-34.66796875
127.171875,-1.953125,-13.18359375,-6.34765625,-28.3203125
127.17578125,-25.87890625,-23.92578125,-31.73828125,-45.8984375
127.1796875,-24.4140625,-22.94921875,-28.80859375,-45.41015625
127.18359375,-23.92578125,-26.3671875,-19.04296875,-30.2734375
127.1875,-28.3203125,-36.1328125,-20.5078125,-24.90234375
127.19140625,-27.34375,-24.90234375,-23.92578125,-37.109375
127.1953125,-33.203125,-14.16015625,-31.25,-49.31640625
127.19921875,-25.390625,-13.671875,-30.76171875,-33.69140625
127.203125,-13.18359375,-21.484375,-23.92578125,-19.53125
127.20703125,-19.53125,-14.6484375,-12.6953125,-31.73828125
127.2109375,-21.484375,-12.20703125,-16.11328125,-37.59765625
127.21484375,-29.296875,-19.53125,-24.90234375,-37.109375
127.21875,-28.3203125,-26.3671875,-24.4140625,-32.2265625
127.22265625,-18.06640625,-21.484375,-17.08984375,-34.66796875
127.2265625,-25.390625,-19.04296875,-14.6484375,-37.109375
127.23046875,-41.015625,-21.484375,-24.90234375,-43.9453125
127.234375,-45.41015625,-23.92578125,-28.80859375,-51.26953125
127.23828125,-24.90234375,-20.99609375,-20.5078125,-25.390625
127.2421875,-24.90234375,-11.71875,-20.01953125,-34.1796875
127.24609375,-27.34375,-16.11328125,-20.99609375,-34.1796875
127.25,-8.30078125,-19.04296875,-13.671875,0.48828125
127.25390625,-11.23046875,-13.18359375,-15.13671875,-10.7421875
127.2578125,-20.99609375,-18.06640625,-21.97265625,-34.66796875
127.26171875,-17.08984375,-25.390625,-23.92578125,-37.59765625
127.265625,-15.13671875,-18.5546875,-31.25,-29.296875
127.26953125,-12.6953125,-15.13671875,-31.25,-21.97265625
127.2734375,-15.625,-19.04296875,-26.3671875,-23.4375
127.27734375,-21.484375,-14.16015625,-26.3671875,-27.83203125
127.28125,-20.01953125,-17.08984375,-19.53125,-24.90234375
127.28515625,-17.578125,-26.85546875,-16.11328125,-14.16015625
127.2890625,-18.5546875,-21.484375,-19.53125,-15.13671875
127.29296875,-33.69140625,-20.99609375,-21.97265625,-25.87890625
127.296875,-30.76171875,-24.90234375,-22.94921875,-21.484375
127.30078125,-12.20703125,-27.83203125,-24.4140625,-16.6015625
127.3046875,-15.13671875,-28.80859375,-27.34375,-22.94921875
127.30859375,-28.80859375,-23.92578125,-26.85546875,-25.390625
127.3125,-22.4609375,-18.5546875,-30.2734375,-20.5078125
127.31640625,-15.625,-25.390625,-27.83203125,-8.7890625
127.3203125,-22.4609375,-29.296875,-20.99609375,-3.41796875
127.32421875,-30.2734375,-28.3203125,-23.92578125,-14.16015625
127.328125,-33.203125,-35.15625,-26.85546875,-29.78515625
127.33203125,-19.04296875,-25.87890625,-23.4375,-23.4375
127.3359375,-17.08984375,-16.11328125,-25.87890625,-10.25390625
127.33984375,-27.83203125,-22.4609375,-31.73828125,-15.625
127.34375,-14.16015625,-27.34375,-20.99609375,-12.20703125
127.34765625,-5.37109375,-20.5078125,-15.625,-13.671875
127.3515625,-6.8359375,-17.08984375,-18.5546875,-7.8125
127.35546875,-11.71875,-20.99609375,-16.6015625,-2.9296875
127.359375,-27.83203125,-28.80859375,-23.4375,-19.53125
127.36328125,-28.3203125,-25.390625,-22.4609375,-22.4609375
127.3671875,-19.53125,-13.671875,-20.01953125,-9.27734375
127.37109375,-9.765625,-8.7890625,-18.5546875,-5.37109375
127.375,-15.625,-15.13671875,-20.01953125,-4.8828125
127.37890625,-18.5546875,-22.94921875,-18.06640625,-10.7421875
127.3828125,-7.8125,-29.296875,-17.578125,-11.71875
127.38671875,-0.9765625,-23.4375,-18.5546875,11.23046875
127.390625,-8.7890625,-17.08984375,-15.13671875,1.953125
127.39453125,-15.625,-20.5078125,-12.20703125,-20.01953125
127.3984375,-16.11328125,-26.3671875,-18.5546875,-16.6015625
127.40234375,-15.625,-24.4140625,-24.90234375,-16.11328125
127.40625,-11.71875,-15.13671875,-15.625,-14.16015625
127.41015625,-17.08984375,-12.6953125,-9.27734375,-9.765625
127.4140625,-32.2265625,-29.296875,-16.11328125,-19.04296875
127.41796875,-28.3203125,-31.73828125,-22.4609375,-21.97265625
127.421875,-17.578125,-26.85546875,-20.99609375,-20.99609375
127.42578125,-24.90234375,-28.3203125,-20.99609375,-22.4609375
127.4296875,-29.78515625,-16.6015625,-20.5078125,-15.13671875
127.43359375,-25.390625,-10.7421875,-20.5078125,-0.48828125
127.4375,-15.625,-17.08984375,-24.4140625,6.8359375
127.44140625,-10.25390625,-21.97265625,-19.53125,0.9765625
127.4453125,-19.53125,-26.3671875,-17.08984375,-16.6015625
127.44921875,-34.1796875,-29.78515625,-21.484375,-19.53125
127.453125,-26.85546875,-30.76171875,-16.11328125,-8.7890625
127.45703125,-19.04296875,-30.76171875,-15.13671875,-9.27734375
127.4609375,-19.53125,-25.390625,-19.53125,-22.94921875
127.46484375,-19.53125,-27.34375,-18.5546875,-22.4609375
127.46875,-25.390625,-40.0390625,-20.01953125,-7.8125
127.47265625,-32.71484375,-44.43359375,-28.3203125,-21.484375
127.4765625,-42.96875,-36.1328125,-30.2734375,-43.45703125
127.48046875,-46.875,-36.1328125,-17.08984375,-35.15625
127.484375,-37.59765625,-38.57421875,-17.578125,-26.85546875
127.48828125,-26.85546875,-29.78515625,-21.484375,-33.203125
127.4921875,-23.92578125,-22.94921875,-23.4375,-42.96875
127.49609375,-32.71484375,-23.4375,-24.4140625,-41.50390625
127.5,-26.3671875,-16.6015625,-18.06640625,-30.76171875
127.50390625,-12.20703125,-13.18359375,-18.5546875,-22.4609375
127.5078125,-10.25390625,-21.97265625,-16.11328125,-27.34375
127.51171875,-18.5546875,-33.203125,-18.06640625,-41.9921875
127.515625,-27.34375,-35.15625,-31.25,-49.31640625
127.51953125,-26.85546875,-31.25,-26.85546875,-45.8984375
127.5234375,-33.203125,-32.71484375,-17.578125,-47.36328125
127.52734375,-41.015625,-35.15625,-19.53125,-54.6875
127.53125,-35.15625,-34.1796875,-18.5546875,-41.50390625
127.53515625,-29.78515625,-31.73828125,-20.99609375,-34.1796875
127.5390625,-25.87890625,-25.87890625,-17.578125,-43.9453125
127.54296875,-37.109375,-32.71484375,-23.4375,-60.05859375
127.546875,-46.38671875,-36.62109375,-32.71484375,-68.359375
127.55078125,-36.62109375,-35.15625,-27.83203125,-41.9921875
127.5546875,-24.90234375,-35.15625,-20.5078125,-27.34375
127.55859375,-29.296875,-32.2265625,-19.04296875,-38.0859375
127.5625,-37.109375,-33.69140625,-23.4375,-55.6640625
127.56640625,-31.73828125,-32.2265625,-21.97265625,-55.17578125
127.5703125,-25.390625,-26.85546875,-16.11328125,-34.66796875
127.57421875,-30.76171875,-26.85546875,-19.04296875,-48.33984375
127.578125,-40.52734375,-32.2265625,-22.94921875,-56.640625
127.58203125,-38.0859375,-33.203125,-22.94921875,-43.9453125
127.5859375,-39.0625,-33.203125,-19.53125,-40.0390625
127.58984375,-36.1328125,-31.25,-20.01953125,-39.0625
127.59375,-31.73828125,-28.3203125,-21.97265625,-42.96875
127.59765625,-30.76171875,-27.83203125,-15.625,-37.109375
127.6015625,-21.484375,-20.01953125,-10.7421875,-17.08984375
127.60546875,-16.6015625,-20.5078125,-15.13671875,-28.80859375
127.609375,-20.99609375,-26.85546875,-20.5078125,-39.0625
127.61328125,-32.2265625,-28.3203125,-20.99609375,-30.76171875
127.6171875,-42.48046875,-31.73828125,-21.484375,-19.04296875
127.62109375,-30.2734375,-35.15625,-16.11328125,-12.6953125
127.625,-17.08984375,-34.1796875,-12.6953125,-24.4140625
127.62890625,-10.25390625,-25.390625,-18.5546875,-29.296875
127.6328125,-14.16015625,-21.484375,-25.87890625,-27.83203125
127.63671875,-18.5546875,-24.4140625,-20.99609375,-20.01953125
127.640625,-22.4609375,-21.484375,-16.6015625,-21.97265625
127.64453125,-20.99609375,-13.18359375,-19.04296875,-31.73828125
127.6484375,-13.671875,-15.13671875,-20.99609375,-23.92578125
127.65234375,-23.92578125,-30.2734375,-20.99609375,-27.83203125
127.65625,-29.78515625,-33.203125,-14.16015625,-29.296875
127.66015625,-26.85546875,-20.01953125,-12.20703125,-29.78515625
127.6640625,-28.3203125,-19.53125,-23.92578125,-42.48046875
127.66796875,-27.83203125,-25.87890625,-28.80859375,-44.43359375
127.671875,-24.90234375,-22.4609375,-20.5078125,-33.203125
127.67578125,-28.3203125,-27.34375,-20.5078125,-38.57421875
127.6796875,-30.2734375,-36.62109375,-21.484375,-49.31640625
127.68359375,-33.69140625,-27.34375,-15.625,-27.34375
127.6875,-37.109375,-14.16015625,-17.08984375,-25.390625
127.69140625,-31.25,-14.6484375,-20.99609375,-45.8984375
127.6953125,-29.78515625,-18.5546875,-23.92578125,-35.64453125
127.69921875,-24.4140625,-13.18359375,-19.53125,-21.97265625
127.703125,-17.08984375,-12.20703125,-23.92578125,-19.04296875
127.70703125,-20.99609375,-23.4375,-35.15625,-27.34375
127.7109375,-23.92578125,-29.296875,-26.85546875,-41.015625
127.71484375,-34.1796875,-35.64453125,-20.5078125,-41.015625
127.71875,-23.4375,-30.76171875,-20.99609375,-25.87890625
127.72265625,-9.765625,-22.4609375,-26.3671875,-24.90234375
127.7265625,-9.27734375,-21.97265625,-23.92578125,-36.62109375
127.73046875,-17.08984375,-22.94921875,-21.484375,-46.38671875
127.734375,-26.3671875,-22.94921875,-24.90234375,-37.59765625
127.73828125,-23.4375,-24.4140625,-21.97265625,-28.80859375
127.7421875,-18.06640625,-25.87890625,-22.4609375,-45.41015625
127.74609375,-16.6015625,-25.390625,-19.53125,-46.38671875
127.75,-16.6015625,-25.390625,-23.92578125,-31.25
127.75390625,-7.8125,-21.484375,-23.4375,-19.53125
127.7578125,-4.39453125,-21.97265625,-17.08984375,-28.3203125
127.76171875,-9.765625,-20.01953125,-14.6484375,-39.55078125
127.765625,-13.18359375,-17.08984375,-17.08984375,-43.45703125
127.76953125,-10.25390625,-21.484375,-18.5546875,-45.8984375
127.7734375,-0.48828125,-25.87890625,-18.5546875,-40.0390625
127.77734375,-13.671875,-27.34375,-23.92578125,-40.52734375
127.78125,-25.87890625,-25.390625,-22.4609375,-37.59765625
127.78515625,-12.20703125,-20.01953125,-18.06640625,-32.2265625
127.7890625,5.37109375,-15.625,-14.6484375,-20.5078125
127.79296875,-2.9296875,-16.11328125,-10.7421875,-19.04296875
127.796875,-25.87890625,-27.34375,-10.7421875,-33.69140625
127.80078125,-29.78515625,-28.80859375,-21.484375,-34.1796875
127.8046875,-21.484375,-28.80859375,-24.4140625,-24.4140625
127.80859375,-10.25390625,-24.4140625,-17.08984375,-18.5546875
127.8125,-13.671875,-19.04296875,-17.578125,-18.5546875
127.81640625,-20.5078125,-25.87890625,-20.99609375,-24.4140625
127.8203125,-9.27734375,-20.99609375,-15.625,-21.97265625
127.82421875,0.9765625,-15.13671875,-16.6015625,-21.484375
127.828125,-9.27734375,-20.5078125,-15.13671875,-22.94921875
127.83203125,-1.953125,-14.6484375,-5.37109375,-5.37109375
127.8359375,7.8125,-10.7421875,-11.71875,-0.48828125
127.83984375,-8.7890625,-24.4140625,-20.01953125,-21.97265625
127.84375,-16.6015625,-23.4375,-24.90234375,-33.69140625
127.84765625,-9.27734375,-15.13671875,-12.20703125,-15.625
127.8515625,-18.5546875,-22.4609375,-19.04296875,-16.6015625
127.85546875,-35.64453125,-27.34375,-38.0859375,-25.390625
127.859375,-31.25,-23.4375,-25.390625,-29.78515625
127.86328125,-30.76171875,-23.4375,-21.97265625,-32.71484375
127.8671875,-35.15625,-20.5078125,-24.90234375,-18.5546875
127.87109375,-28.80859375,-16.11328125,-22.4609375,-13.671875
127.875,-25.390625,-19.53125,-22.4609375,-18.06640625
127.87890625,-32.2265625,-26.3671875,-21.484375,-31.73828125
127.8828125,-28.80859375,-26.3671875,-15.13671875,-20.01953125
127.88671875,-17.08984375,-18.5546875,-7.32421875,-11.71875
127.890625,-22.94921875,-20.01953125,-12.6953125,-32.71484375
127.89453125,-25.87890625,-24.4140625,-11.23046875,-24.90234375
127.8984375,-21.484375,-19.04296875,-13.671875,-15.625
127.90234375,-19.04296875,-23.4375,-19.04296875,-21.97265625
127.90625,-12.20703125,-25.87890625,-21.484375,-14.16015625
127.91015625,-14.6484375,-25.390625,-23.4375,-24.4140625
127.9140625,-24.4140625,-24.4140625,-16.11328125,-31.25
127.91796875,-25.87890625,-21.484375,-11.71875,-20.5078125
