Timestamp,TP9,AF7,AF8,TP10
120.01171875,-76.171875,-23.92578125,-63.96484375,-86.9140625
120.015625,-75.1953125,-17.08984375,-57.12890625,-84.47265625
120.01953125,-62.5,-14.16015625,-43.45703125,-62.5
120.0234375,-52.24609375,-14.6484375,-35.15625,-22.4609375
120.02734375,-40.52734375,-21.484375,-32.71484375,-61.03515625
120.03125,-34.1796875,-25.87890625,-32.71484375,-73.73046875
120.03515625,-39.55078125,-21.97265625,-29.78515625,-54.6875
120.0390625,-43.45703125,-18.06640625,-34.66796875,-49.8046875
120.04296875,-46.38671875,-23.92578125,-32.71484375,-41.50390625
120.046875,-22.94921875,-31.25,-19.53125,-43.45703125
120.05078125,-14.6484375,-25.87890625,-24.4140625,-31.25
120.0546875,-23.92578125,-19.04296875,-36.62109375,-14.6484375
120.05859375,-22.4609375,-27.34375,-37.109375,-11.23046875
120.0625,-40.52734375,-37.59765625,-38.57421875,-18.5546875
120.06640625,-65.4296875,-32.71484375,-38.0859375,-31.73828125
120.0703125,-38.0859375,-32.71484375,-33.69140625,-21.484375
120.07421875,-44.921875,-35.15625,-33.203125,-19.53125
120.078125,-45.41015625,-38.0859375,-42.96875,-27.83203125
120.08203125,-23.92578125,-40.52734375,-43.9453125,0.48828125
120.0859375,-31.73828125,-45.41015625,-42.48046875,-17.08984375
120.08984375,-15.625,-48.828125,-41.9921875,-34.66796875
120.09375,-18.5546875,-41.50390625,-34.66796875,-34.66796875
120.09765625,-28.3203125,-37.59765625,-24.90234375,-40.52734375
120.1015625,-14.16015625,-34.66796875,-17.578125,-0.48828125
120.10546875,2.9296875,-27.34375,-11.23046875,20.5078125
120.109375,13.18359375,-17.08984375,-11.23046875,14.16015625
120.11328125,0.9765625,-14.6484375,-6.34765625,1.953125
120.1171875,-17.08984375,-21.484375,9.765625,8.7890625
120.12109375,-20.99609375,-20.5078125,4.8828125,14.6484375
120.125,-26.3671875,-15.13671875,1.953125,-12.20703125
120.12890625,-21.484375,-14.6484375,4.8828125,-25.87890625
120.1328125,-9.765625,-16.6015625,3.90625,-10.25390625
120.13671875,-23.92578125,-22.94921875,18.06640625,21.484375
120.140625,-26.3671875,-16.6015625,17.578125,24.90234375
120.14453125,-15.625,-7.32421875,14.16015625,-0.48828125
120.1484375,-14.6484375,-18.06640625,20.01953125,-2.44140625
120.15234375,-15.625,-23.4375,12.6953125,-17.08984375
120.15625,-21.97265625,-20.5078125,9.27734375,-0.48828125
120.16015625,-7.8125,-26.85546875,9.765625,21.484375
120.1640625,-26.3671875,-30.76171875,0.48828125,-7.32421875
120.16796875,-48.33984375,-32.2265625,10.7421875,-9.27734375
120.171875,-30.76171875,-32.71484375,10.25390625,9.27734375
120.17578125,-45.41015625,-36.1328125,2.9296875,-18.5546875
120.1796875,-47.36328125,-36.1328125,2.44140625,-32.2265625
120.18359375,-34.1796875,-33.203125,0.0,8.7890625
120.1875,-64.94140625,-36.62109375,2.9296875,6.34765625
120.19140625,-54.6875,-35.15625,3.90625,-5.37109375
120.1953125,-29.296875,-31.73828125,4.39453125,-16.11328125
120.19921875,-64.453125,-37.109375,-3.90625,-46.38671875
120.203125,-87.40234375,-42.96875,-13.18359375,-45.41015625
120.20703125,-62.01171875,-34.1796875,3.90625,-20.01953125
120.2109375,-89.35546875,-26.3671875,15.13671875,-49.31640625
120.21484375,-138.18359375,-33.203125,-19.53125,-119.62890625
120.21875,-143.06640625,-33.203125,-33.203125,-114.74609375
120.22265625,-132.8125,-26.3671875,-21.484375,-104.4921875
120.2265625,-139.6484375,-24.90234375,-28.3203125,-120.60546875
120.23046875,-145.01953125,-22.94921875,-23.4375,-114.74609375
120.234375,-144.04296875,-16.6015625,-12.20703125,-114.74609375
120.23828125,-134.27734375,-18.06640625,-9.27734375,-118.1640625
120.2421875,-105.95703125,-14.6484375,-25.390625,-124.0234375
120.24609375,-101.5625,-10.25390625,-33.69140625,-100.5859375
120.25,-114.2578125,-16.11328125,-24.90234375,-75.1953125
120.25390625,-106.93359375,-20.99609375,-26.3671875,-79.58984375
120.2578125,-93.75,-21.484375,-33.69140625,-75.68359375
120.26171875,-85.9375,-24.4140625,-38.57421875,-53.22265625
120.265625,-54.19921875,-21.97265625,-39.0625,-27.83203125
120.26953125,-20.99609375,-20.01953125,-42.96875,-16.6015625
120.2734375,-14.6484375,-26.3671875,-47.8515625,-11.23046875
120.27734375,-16.6015625,-36.62109375,-54.19921875,-3.41796875
120.28125,-13.18359375,-45.41015625,-58.59375,6.34765625
120.28515625,-4.39453125,-48.828125,-61.5234375,14.6484375
120.2890625,3.90625,-52.734375,-64.453125,29.296875
120.29296875,-2.44140625,-56.15234375,-64.94140625,47.36328125
120.296875,21.484375,-50.78125,-52.734375,71.2890625
120.30078125,40.0390625,-47.8515625,-45.41015625,74.21875
120.3046875,40.52734375,-49.31640625,-49.31640625,50.78125
120.30859375,53.22265625,-52.24609375,-51.26953125,73.73046875
120.3125,55.17578125,-59.5703125,-51.26953125,96.6796875
120.31640625,48.33984375,-64.453125,-51.7578125,69.3359375
120.3203125,51.7578125,-66.89453125,-54.19921875,72.75390625
120.32421875,48.828125,-66.89453125,-50.78125,90.33203125
120.328125,37.109375,-61.5234375,-44.43359375,102.5390625
120.33203125,41.9921875,-55.6640625,-41.9921875,94.7265625
120.3359375,62.01171875,-57.12890625,-38.0859375,94.23828125
120.33984375,77.1484375,-55.6640625,-32.71484375,114.2578125
120.34375,82.03125,-49.8046875,-23.92578125,111.328125
120.34765625,70.3125,-42.96875,-15.625,122.0703125
120.3515625,75.1953125,-43.9453125,-28.3203125,92.28515625
120.35546875,83.984375,-48.828125,-34.1796875,59.08203125
120.359375,70.3125,-43.45703125,-21.97265625,76.171875
120.36328125,79.1015625,-37.59765625,-18.5546875,103.515625
120.3671875,76.66015625,-37.59765625,-12.6953125,101.07421875
120.37109375,72.75390625,-36.62109375,-4.8828125,83.49609375
120.375,78.125,-33.69140625,-6.34765625,88.8671875
120.37890625,62.98828125,-39.55078125,-16.6015625,76.171875
120.3828125,60.546875,-41.9921875,-21.97265625,67.87109375
120.38671875,67.3828125,-40.0390625,-19.04296875,76.171875
120.390625,51.7578125,-41.015625,-26.85546875,62.5
120.39453125,33.69140625,-40.0390625,-30.2734375,38.57421875
120.3984375,29.296875,-38.57421875,-28.3203125,42.48046875
120.40234375,32.2265625,-35.64453125,-28.80859375,45.41015625
120.40625,41.9921875,-34.66796875,-28.3203125,61.03515625
120.41015625,40.0390625,-28.80859375,-31.25,79.58984375
120.4140625,28.80859375,-24.90234375,-30.2734375,62.01171875
120.41796875,8.7890625,-29.296875,-27.83203125,57.12890625
120.421875,20.99609375,-24.4140625,-26.85546875,55.17578125
120.42578125,14.16015625,-25.390625,-30.76171875,39.0625
120.4296875,-0.9765625,-35.64453125,-35.15625,32.71484375
120.43359375,3.90625,-30.76171875,-26.85546875,15.625
120.4375,9.27734375,-18.06640625,-20.99609375,0.0
120.44140625,-26.3671875,-22.94921875,-23.4375,-7.8125
120.4453125,-64.453125,-26.85546875,-27.83203125,-41.50390625
120.44921875,-57.6171875,-23.4375,-22.94921875,-51.26953125
120.453125,-42.48046875,-28.3203125,-18.5546875,-34.66796875
120.45703125,-60.05859375,-29.296875,-20.5078125,-57.12890625
120.4609375,-77.63671875,-15.625,-8.7890625,-67.87109375
120.46484375,-78.125,-3.41796875,-6.34765625,-54.6875
120.46875,-75.1953125,-7.8125,-16.11328125,-74.70703125
120.47265625,-97.16796875,-23.92578125,-17.08984375,-101.07421875
120.4765625,-93.26171875,-25.390625,-11.23046875,-94.7265625
120.48046875,-59.5703125,-14.6484375,-10.7421875,-99.609375
120.484375,-70.3125,-14.6484375,-22.94921875,-117.1875
120.48828125,-55.6640625,-20.99609375,-30.76171875,-118.65234375
120.4921875,-44.43359375,-34.1796875,-41.015625,-110.3515625
120.49609375,-65.91796875,-44.921875,-49.31640625,-96.6796875
120.5,-62.5,-32.2265625,-36.62109375,-74.21875
120.50390625,-39.0625,-22.4609375,-35.64453125,-85.44921875
120.5078125,-31.25,-30.2734375,-41.50390625,-79.58984375
120.51171875,-30.2734375,-41.015625,-50.29296875,-36.1328125
120.515625,-29.78515625,-44.921875,-54.19921875,-53.7109375
120.51953125,-19.04296875,-43.45703125,-43.45703125,-50.78125
120.5234375,6.8359375,-43.45703125,-38.57421875,-17.08984375
120.52734375,21.484375,-40.52734375,-35.64453125,-20.01953125
120.53125,34.1796875,-38.57421875,-28.80859375,-20.99609375
120.53515625,50.78125,-37.109375,-24.4140625,7.32421875
120.5390625,51.7578125,-33.203125,-26.85546875,-0.48828125
120.54296875,55.6640625,-25.87890625,-32.2265625,12.20703125
120.546875,61.03515625,-23.4375,-24.4140625,64.453125
120.55078125,65.4296875,-29.296875,-17.08984375,54.6875
120.5546875,80.078125,-28.80859375,-20.5078125,35.15625
120.55859375,72.265625,-26.3671875,-21.484375,48.828125
120.5625,72.265625,-24.90234375,-22.4609375,41.50390625
120.56640625,74.21875,-25.390625,-30.2734375,24.90234375
120.5703125,87.890625,-24.90234375,-27.34375,46.38671875
120.57421875,63.4765625,-26.85546875,-23.4375,67.87109375
120.578125,54.6875,-31.25,-27.83203125,48.828125
120.58203125,75.68359375,-28.80859375,-30.76171875,28.80859375
120.5859375,60.05859375,-31.73828125,-32.2265625,36.1328125
120.58984375,47.8515625,-41.9921875,-34.66796875,42.96875
120.59375,44.921875,-46.875,-39.55078125,34.1796875
120.59765625,36.62109375,-47.36328125,-36.62109375,28.3203125
120.6015625,41.50390625,-51.26953125,-37.59765625,23.4375
120.60546875,49.8046875,-56.15234375,-46.875,27.34375
120.609375,60.05859375,-52.734375,-44.921875,20.01953125
120.61328125,55.6640625,-52.24609375,-47.36328125,6.8359375
120.6171875,29.78515625,-60.546875,-52.734375,0.0
120.62109375,31.73828125,-67.87109375,-49.31640625,5.859375
120.625,41.50390625,-63.96484375,-53.7109375,-4.8828125
120.62890625,26.3671875,-62.5,-59.08203125,-17.578125
120.6328125,32.71484375,-64.453125,-57.12890625,-7.8125
120.63671875,42.96875,-57.12890625,-49.31640625,1.46484375
120.640625,41.50390625,-46.875,-42.48046875,23.92578125
120.64453125,20.5078125,-49.31640625,-47.36328125,-0.48828125
120.6484375,14.16015625,-51.7578125,-43.45703125,5.859375
120.65234375,21.484375,-51.7578125,-42.48046875,9.27734375
120.65625,36.62109375,-53.7109375,-47.8515625,-30.2734375
120.66015625,36.1328125,-54.19921875,-48.33984375,-12.6953125
120.6640625,29.296875,-50.78125,-44.43359375,15.625
120.66796875,29.296875,-46.875,-42.48046875,-2.44140625
120.671875,22.4609375,-50.78125,-52.24609375,-11.71875
120.67578125,38.57421875,-50.29296875,-46.38671875,3.90625
120.6796875,23.4375,-53.7109375,-47.36328125,-15.13671875
120.68359375,-8.30078125,-57.6171875,-53.22265625,-38.0859375
120.6875,9.27734375,-49.31640625,-46.875,-27.83203125
120.69140625,-3.41796875,-45.8984375,-39.0625,-3.41796875
120.6953125,-0.9765625,-44.43359375,-37.59765625,6.8359375
120.69921875,39.0625,-46.38671875,-45.8984375,-12.20703125
120.703125,43.9453125,-48.33984375,-47.36328125,-14.6484375
120.70703125,20.99609375,-44.43359375,-42.96875,1.953125
120.7109375,38.57421875,-41.9921875,-40.52734375,-5.859375
120.71484375,22.94921875,-45.8984375,-39.55078125,-21.484375
120.71875,-14.6484375,-47.8515625,-40.52734375,-39.55078125
120.72265625,-21.97265625,-46.875,-42.96875,-45.8984375
120.7265625,-15.13671875,-51.26953125,-45.41015625,-29.78515625
120.73046875,0.48828125,-54.19921875,-51.26953125,-20.01953125
120.734375,-18.06640625,-56.640625,-57.12890625,-43.9453125
120.73828125,-22.4609375,-61.5234375,-58.10546875,-58.10546875
120.7421875,1.46484375,-61.03515625,-53.7109375,-18.5546875
120.74609375,-4.39453125,-59.5703125,-48.33984375,-0.48828125
120.75,-20.01953125,-61.03515625,-56.15234375,-32.2265625
120.75390625,-44.921875,-65.91796875,-63.96484375,-27.34375
120.7578125,-27.83203125,-69.3359375,-63.96484375,-42.96875
120.76171875,-28.3203125,-67.87109375,-69.3359375,-80.078125
120.765625,-77.63671875,-67.87109375,-65.91796875,-64.94140625
120.76953125,-82.51953125,-76.66015625,-70.80078125,-63.96484375
120.7734375,-83.984375,-76.171875,-76.171875,-84.47265625
120.77734375,-67.3828125,-72.75390625,-77.1484375,-81.54296875
120.78125,-44.43359375,-75.1953125,-70.80078125,-67.87109375
120.78515625,-38.57421875,-75.68359375,-67.3828125,-62.98828125
120.7890625,-40.0390625,-72.265625,-74.70703125,-54.6875
120.79296875,-58.10546875,-74.21875,-72.265625,-58.10546875
120.796875,-70.80078125,-73.2421875,-73.2421875,-79.58984375
120.80078125,-55.17578125,-69.82421875,-77.1484375,-70.3125
120.8046875,-81.0546875,-70.3125,-75.68359375,-73.2421875
120.80859375,-101.07421875,-71.77734375,-74.70703125,-83.984375
120.8125,-83.0078125,-72.265625,-74.70703125,-74.70703125
120.81640625,-58.59375,-71.77734375,-78.61328125,-86.9140625
120.8203125,-60.546875,-81.54296875,-83.0078125,-95.21484375
120.82421875,-91.30859375,-82.51953125,-89.35546875,-96.6796875
120.828125,-85.44921875,-84.9609375,-86.9140625,-101.07421875
120.83203125,-73.2421875,-90.8203125,-79.58984375,-74.70703125
120.8359375,-85.9375,-82.51953125,-78.125,-96.19140625
120.83984375,-75.68359375,-70.80078125,-76.171875,-122.0703125
120.84375,-72.75390625,-63.96484375,-73.73046875,-107.91015625
120.84765625,-39.55078125,-61.5234375,-76.171875,-68.359375
120.8515625,-13.18359375,-61.5234375,-71.77734375,-64.453125
120.85546875,-79.1015625,-65.4296875,-63.4765625,-99.12109375
120.859375,-80.56640625,-73.73046875,-62.98828125,-88.37890625
120.86328125,-31.73828125,-77.1484375,-70.80078125,-75.68359375
120.8671875,-20.01953125,-75.68359375,-81.0546875,-31.73828125
120.87109375,-54.6875,-82.03125,-81.0546875,-3.41796875
120.875,-35.15625,-86.42578125,-78.125,-72.75390625
120.87890625,-3.41796875,-81.54296875,-75.1953125,-16.6015625
120.8828125,21.484375,-78.61328125,-67.3828125,45.8984375
120.88671875,28.80859375,-77.1484375,-60.05859375,32.2265625
120.890625,28.80859375,-64.94140625,-53.7109375,4.39453125
120.89453125,101.5625,-64.94140625,-51.26953125,61.03515625
120.8984375,68.359375,-73.73046875,-53.22265625,131.34765625
120.90234375,52.24609375,-75.1953125,-54.6875,38.57421875
120.90625,87.40234375,-77.1484375,-61.03515625,0.0
120.91015625,68.84765625,-73.73046875,-58.59375,57.12890625
120.9140625,79.1015625,-62.5,-45.41015625,108.3984375
120.91796875,126.46484375,-54.19921875,-42.48046875,106.93359375
120.921875,168.45703125,-48.828125,-32.71484375,132.32421875
120.92578125,133.30078125,-54.19921875,-38.57421875,137.20703125
120.9296875,130.37109375,-62.01171875,-52.734375,115.234375
120.93359375,137.6953125,-57.12890625,-50.29296875,135.25390625
120.9375,158.203125,-48.828125,-44.921875,117.67578125
120.94140625,120.60546875,-48.33984375,-41.9921875,115.234375
120.9453125,88.8671875,-52.734375,-45.41015625,97.65625
120.94921875,111.81640625,-49.31640625,-48.33984375,43.9453125
120.953125,96.19140625,-47.8515625,-42.48046875,41.015625
120.95703125,97.16796875,-54.6875,-41.50390625,56.15234375
120.9609375,71.2890625,-62.5,-48.33984375,74.21875
120.96484375,50.78125,-58.10546875,-48.828125,33.203125
120.96875,88.8671875,-55.6640625,-46.875,-37.109375
120.97265625,64.94140625,-53.22265625,-45.8984375,19.04296875
120.9765625,-1.46484375,-41.9921875,-38.0859375,43.9453125
120.98046875,12.6953125,-37.109375,-36.62109375,7.32421875
120.984375,62.01171875,-35.15625,-43.45703125,19.04296875
120.98828125,33.69140625,-32.71484375,-37.59765625,22.94921875
120.9921875,-19.04296875,-46.875,-46.875,16.11328125
120.99609375,-14.16015625,-56.640625,-55.6640625,16.6015625
121.0,-3.90625,-58.59375,-56.640625,17.08984375
121.00390625,-28.3203125,-58.59375,-60.05859375,40.0390625
121.0078125,-44.43359375,-53.22265625,-64.453125,-35.15625
121.01171875,-54.6875,-55.17578125,-63.4765625,-11.71875
121.015625,14.16015625,-54.19921875,-53.7109375,28.80859375
121.01953125,21.484375,-51.26953125,-52.24609375,-32.2265625
121.0234375,-50.29296875,-53.7109375,-53.22265625,5.37109375
121.02734375,-26.3671875,-59.5703125,-56.640625,34.66796875
121.03125,-91.796875,-54.6875,-57.6171875,-20.99609375
121.03515625,-49.8046875,-49.8046875,-48.828125,-1.953125
121.0390625,-7.8125,-45.41015625,-42.48046875,68.359375
121.04296875,-40.52734375,-44.921875,-49.8046875,-13.18359375
121.046875,-18.06640625,-52.24609375,-58.59375,-72.265625
121.05078125,-40.52734375,-57.6171875,-61.03515625,-51.7578125
121.0546875,-52.734375,-62.01171875,-62.98828125,-58.59375
121.05859375,-39.0625,-62.98828125,-57.12890625,-55.17578125
121.0625,-25.390625,-57.6171875,-45.8984375,-34.1796875
121.06640625,-34.66796875,-55.17578125,-39.55078125,-8.30078125
121.0703125,-61.5234375,-52.734375,-41.015625,2.44140625
121.07421875,4.8828125,-48.33984375,-59.08203125,31.73828125
121.078125,59.08203125,-47.36328125,-65.4296875,72.75390625
121.08203125,-13.18359375,-52.734375,-53.22265625,64.94140625
121.0859375,-14.16015625,-56.15234375,-55.6640625,11.71875
121.08984375,-10.7421875,-53.7109375,-50.29296875,94.7265625
121.09375,-7.8125,-47.8515625,-36.1328125,117.1875
121.09765625,104.4921875,-46.875,-29.296875,125.48828125
121.1015625,75.68359375,-51.26953125,-23.92578125,146.484375
121.10546875,43.9453125,-51.26953125,-25.87890625,142.08984375
121.109375,90.8203125,-50.78125,-24.90234375,228.515625
121.11328125,120.60546875,-48.828125,-22.94921875,201.171875
121.1171875,139.16015625,-50.29296875,-22.4609375,179.19921875
121.12109375,141.6015625,-53.22265625,-19.53125,232.421875
121.125,126.953125,-56.15234375,-15.13671875,271.97265625
121.12890625,146.484375,-53.7109375,-11.23046875,256.34765625
121.1328125,185.05859375,-52.24609375,-20.99609375,239.2578125
121.13671875,196.77734375,-56.15234375,-30.76171875,245.1171875
121.140625,182.6171875,-58.10546875,-30.76171875,229.4921875
121.14453125,145.01953125,-55.17578125,-28.80859375,217.28515625
121.1484375,191.89453125,-48.828125,-21.97265625,214.35546875
121.15234375,206.0546875,-45.41015625,-17.578125,169.43359375
121.15625,131.8359375,-35.15625,-8.7890625,150.390625
121.16015625,164.55078125,-26.85546875,-5.859375,207.51953125
121.1640625,187.01171875,-34.66796875,-12.6953125,212.40234375
121.16796875,145.99609375,-37.109375,-15.625,169.43359375
121.171875,138.18359375,-39.55078125,-18.5546875,145.5078125
121.17578125,120.1171875,-40.0390625,-14.6484375,141.11328125
121.1796875,138.18359375,-29.296875,-7.8125,156.25
121.18359375,152.83203125,-29.78515625,-10.25390625,142.08984375
121.1875,129.8828125,-39.55078125,-23.92578125,106.4453125
121.19140625,135.25390625,-36.62109375,-31.25,120.60546875
121.1953125,139.16015625,-41.50390625,-37.59765625,137.6953125
121.19921875,73.2421875,-58.59375,-44.921875,95.703125
121.203125,69.82421875,-62.5,-45.41015625,63.4765625
121.20703125,103.515625,-59.08203125,-42.96875,58.59375
121.2109375,55.6640625,-58.10546875,-52.734375,1.953125
121.21484375,18.5546875,-58.59375,-52.24609375,50.78125
121.21875,81.0546875,-55.6640625,-33.69140625,104.4921875
121.22265625,117.1875,-47.8515625,-38.0859375,24.90234375
121.2265625,76.171875,-45.8984375,-40.52734375,32.2265625
121.23046875,33.203125,-47.36328125,-34.1796875,74.21875
121.234375,17.578125,-39.55078125,-41.50390625,32.71484375
121.23828125,55.6640625,-38.0859375,-48.828125,-11.71875
121.2421875,61.5234375,-42.96875,-48.828125,13.671875
121.24609375,-4.39453125,-51.26953125,-47.36328125,57.6171875
121.25,63.4765625,-58.10546875,-50.78125,54.6875
121.25390625,83.49609375,-45.8984375,-40.52734375,8.30078125
121.2578125,-10.25390625,-46.38671875,-38.57421875,-37.109375
121.26171875,25.87890625,-55.17578125,-45.41015625,-20.5078125
121.265625,25.87890625,-50.29296875,-47.8515625,24.90234375
121.26953125,36.62109375,-49.8046875,-42.96875,20.01953125
121.2734375,16.11328125,-56.640625,-46.38671875,-20.01953125
121.27734375,7.8125,-57.6171875,-53.7109375,1.953125
121.28125,1.953125,-56.640625,-47.8515625,28.3203125
121.28515625,-10.7421875,-55.17578125,-50.29296875,0.9765625
121.2890625,46.38671875,-50.29296875,-58.59375,-16.6015625
121.29296875,-21.484375,-50.29296875,-55.17578125,-1.46484375
121.296875,-49.8046875,-51.26953125,-47.8515625,-1.953125
121.30078125,5.859375,-52.24609375,-51.7578125,-24.4140625
121.3046875,-8.30078125,-47.8515625,-57.6171875,-13.18359375
121.30859375,31.25,-41.015625,-54.6875,20.01953125
121.3125,20.99609375,-34.66796875,-46.38671875,31.25
121.31640625,-51.7578125,-39.55078125,-37.109375,25.87890625
121.3203125,-29.296875,-43.45703125,-34.1796875,-43.9453125
121.32421875,-5.859375,-40.0390625,-34.1796875,-46.38671875
121.328125,0.0,-38.57421875,-30.2734375,-3.41796875
121.33203125,15.13671875,-33.69140625,-24.90234375,21.97265625
121.3359375,-4.8828125,-29.78515625,-29.78515625,34.1796875
121.33984375,-42.48046875,-37.59765625,-33.203125,-34.66796875
121.34375,3.90625,-40.52734375,-33.203125,9.765625
121.34765625,23.92578125,-35.64453125,-28.3203125,35.15625
121.3515625,-19.04296875,-37.109375,-22.94921875,-22.94921875
121.35546875,31.25,-34.1796875,-22.4609375,15.13671875
121.359375,9.765625,-27.34375,-15.625,57.12890625
121.36328125,-28.3203125,-26.85546875,-15.13671875,38.57421875
121.3671875,-34.66796875,-27.34375,-12.20703125,1.953125
121.37109375,-39.0625,-30.76171875,-14.6484375,6.34765625
121.375,0.0,-33.203125,-21.484375,24.90234375
121.37890625,-25.390625,-31.73828125,-20.5078125,3.90625
121.3828125,-38.57421875,-28.3203125,-30.76171875,-26.85546875
121.38671875,14.6484375,-28.3203125,-29.78515625,32.2265625
121.390625,28.3203125,-33.203125,-10.7421875,87.40234375
121.39453125,-21.484375,-37.59765625,-12.6953125,47.8515625
121.3984375,-28.80859375,-44.43359375,-20.5078125,14.16015625
121.40234375,-33.69140625,-46.38671875,-22.94921875,21.97265625
121.40625,-52.24609375,-48.33984375,-19.04296875,62.01171875
121.41015625,-63.4765625,-49.31640625,-11.71875,35.15625
121.4140625,-51.7578125,-49.31640625,-16.11328125,-13.18359375
121.41796875,-20.99609375,-55.6640625,-14.16015625,23.92578125
121.421875,-29.78515625,-60.05859375,-16.6015625,36.1328125
121.42578125,-52.24609375,-55.6640625,-28.80859375,22.94921875
121.4296875,-41.50390625,-52.734375,-29.78515625,-6.34765625
121.43359375,-15.625,-53.7109375,-23.92578125,-13.18359375
121.4375,-57.6171875,-45.8984375,-20.99609375,3.41796875
121.44140625,-56.15234375,-43.9453125,-25.87890625,9.765625
121.4453125,-25.87890625,-44.921875,-24.4140625,56.640625
121.44921875,-44.43359375,-43.9453125,-16.11328125,33.203125
121.453125,-39.0625,-40.0390625,-26.85546875,-11.71875
121.45703125,-63.96484375,-40.52734375,-30.76171875,27.83203125
121.4609375,-64.453125,-37.59765625,-23.4375,124.51171875
121.46484375,16.6015625,-37.109375,-28.80859375,99.12109375
121.46875,-52.24609375,-37.59765625,-37.109375,-35.15625
121.47265625,-100.5859375,-46.38671875,-40.0390625,-29.296875
121.4765625,-65.91796875,-54.19921875,-48.33984375,-5.859375
121.48046875,-70.3125,-52.734375,-56.640625,-31.73828125
121.484375,-67.3828125,-56.15234375,-58.10546875,-53.22265625
121.48828125,-81.54296875,-58.10546875,-57.12890625,-45.8984375
121.4921875,-81.0546875,-54.19921875,-55.6640625,-35.15625
121.49609375,-63.96484375,-45.41015625,-50.29296875,-34.1796875
121.5,-74.21875,-37.59765625,-46.38671875,-24.4140625
121.50390625,-81.0546875,-36.62109375,-55.17578125,-35.64453125
121.5078125,-53.7109375,-46.875,-62.5,-48.828125
121.51171875,-48.828125,-58.59375,-64.453125,-23.4375
121.515625,-10.25390625,-57.12890625,-62.98828125,-33.69140625
121.51953125,-39.55078125,-52.734375,-57.6171875,-72.75390625
121.5234375,-89.84375,-54.19921875,-62.01171875,-92.28515625
121.52734375,-77.1484375,-61.5234375,-66.40625,-54.19921875
121.53125,-83.984375,-60.05859375,-62.01171875,-33.69140625
121.53515625,-63.4765625,-49.8046875,-56.640625,-73.2421875
121.5390625,-41.50390625,-48.33984375,-51.26953125,-68.359375
121.54296875,-42.96875,-44.43359375,-44.921875,-27.34375
121.546875,-59.5703125,-40.0390625,-43.9453125,-46.875
121.55078125,-96.19140625,-39.0625,-41.015625,-48.33984375
121.5546875,-66.89453125,-33.203125,-36.62109375,-86.9140625
121.55859375,-12.6953125,-29.296875,-43.45703125,-62.98828125
121.5625,-6.8359375,-23.92578125,-41.015625,-21.484375
121.56640625,-48.33984375,-20.99609375,-31.25,-46.38671875
121.5703125,-39.55078125,-23.92578125,-25.87890625,-11.23046875
121.57421875,-57.12890625,-24.4140625,-29.296875,-22.94921875
121.578125,-79.1015625,-24.90234375,-33.203125,-72.75390625
121.58203125,-72.75390625,-28.3203125,-32.2265625,-58.10546875
121.5859375,-44.43359375,-39.55078125,-41.9921875,-87.40234375
121.58984375,-58.59375,-51.7578125,-58.59375,-102.05078125
121.59375,-120.1171875,-56.15234375,-58.10546875,-83.0078125
121.59765625,-102.05078125,-57.6171875,-50.29296875,-71.2890625
121.6015625,-69.82421875,-59.5703125,-50.29296875,-87.890625
121.60546875,-61.5234375,-51.7578125,-48.33984375,-93.75
121.609375,-57.12890625,-45.8984375,-46.38671875,-50.78125
121.61328125,-18.5546875,-47.8515625,-47.8515625,-49.8046875
121.6171875,-29.78515625,-50.78125,-47.8515625,-40.52734375
121.62109375,-80.078125,-54.19921875,-42.96875,-45.8984375
121.625,-102.5390625,-53.7109375,-45.41015625,-85.44921875
121.62890625,-98.6328125,-50.29296875,-47.8515625,-59.08203125
121.6328125,-80.56640625,-45.41015625,-49.31640625,-75.1953125
121.63671875,-83.0078125,-44.921875,-48.33984375,-59.08203125
121.640625,-87.890625,-41.50390625,-47.8515625,-51.26953125
121.64453125,-76.66015625,-41.9921875,-50.29296875,-62.5
121.6484375,-67.3828125,-43.45703125,-50.29296875,-57.12890625
121.65234375,-72.265625,-45.8984375,-51.7578125,-66.89453125
121.65625,-66.89453125,-55.17578125,-49.31640625,-111.328125
121.66015625,-41.015625,-50.29296875,-44.43359375,-71.77734375
121.6640625,-37.109375,-43.45703125,-39.55078125,-3.90625
121.66796875,-70.80078125,-43.45703125,-38.57421875,-29.296875
121.671875,-76.171875,-40.52734375,-39.55078125,-63.96484375
121.67578125,-52.24609375,-37.109375,-34.66796875,-42.96875
121.6796875,-81.54296875,-35.15625,-39.0625,-19.53125
121.68359375,-20.99609375,-36.62109375,-38.0859375,-38.57421875
121.6875,27.34375,-46.875,-27.34375,-53.7109375
121.69140625,-26.3671875,-44.921875,-17.578125,-34.1796875
121.6953125,-15.13671875,-36.62109375,-18.5546875,-38.57421875
121.69921875,-62.98828125,-33.203125,-27.83203125,-85.44921875
121.703125,-122.55859375,-30.2734375,-26.3671875,-119.140625
121.70703125,-145.99609375,-29.78515625,-15.625,-127.9296875
121.7109375,-175.29296875,-29.78515625,-19.04296875,-167.96875
121.71484375,-243.1640625,-24.90234375,-23.4375,-222.16796875
121.71875,-300.29296875,-16.11328125,-20.01953125,-282.2265625
121.72265625,-250.0,-11.23046875,-28.3203125,-317.87109375
121.7265625,-230.46875,-22.94921875,-32.71484375,-305.6640625
121.73046875,-353.02734375,-32.71484375,-40.52734375,-322.265625
121.734375,-389.6484375,-29.296875,-36.1328125,-353.02734375
121.73828125,-367.1875,-27.34375,-28.3203125,-374.51171875
121.7421875,-401.3671875,-28.3203125,-41.015625,-391.11328125
121.74609375,-432.6171875,-25.87890625,-45.8984375,-402.83203125
121.75,-406.25,-16.6015625,-52.734375,-413.0859375
121.75390625,-380.37109375,-19.53125,-60.05859375,-397.94921875
121.7578125,-384.765625,-21.97265625,-72.265625,-410.15625
121.76171875,-377.44140625,-12.20703125,-82.03125,-394.53125
121.765625,-384.27734375,-9.765625,-65.91796875,-405.76171875
121.76953125,-360.83984375,-9.27734375,-55.6640625,-440.91796875
121.7734375,-346.6796875,-6.34765625,-61.5234375,-435.546875
121.77734375,-367.1875,1.953125,-76.66015625,-395.5078125
121.78125,-359.375,7.8125,-80.56640625,-381.8359375
121.78515625,-312.01171875,7.32421875,-73.2421875,-365.234375
121.7890625,-289.0625,12.20703125,-80.078125,-329.58984375
121.79296875,-318.359375,12.20703125,-85.9375,-337.40234375
121.796875,-277.83203125,8.30078125,-69.82421875,-334.9609375
121.80078125,-235.3515625,16.6015625,-57.12890625,-289.0625
121.8046875,-208.984375,22.94921875,-56.640625,-222.65625
121.80859375,-190.4296875,20.99609375,-63.96484375,-215.33203125
121.8125,-161.1328125,22.4609375,-57.6171875,-231.4453125
121.81640625,-124.0234375,29.296875,-52.734375,-230.95703125
121.8203125,-187.98828125,22.4609375,-54.6875,-216.796875
121.82421875,-154.296875,19.04296875,-45.8984375,-172.36328125
121.828125,-133.30078125,18.5546875,-43.45703125,-140.13671875
121.83203125,-114.2578125,18.06640625,-41.9921875,-114.74609375
121.8359375,-88.8671875,9.27734375,-43.9453125,-115.234375
121.83984375,-78.125,12.6953125,-31.25,-101.5625
121.84375,-76.171875,23.92578125,-19.53125,-93.75
121.84765625,-61.03515625,14.6484375,-22.4609375,-94.23828125
121.8515625,-44.921875,-1.953125,-35.64453125,-68.84765625
121.85546875,-61.5234375,2.9296875,-32.2265625,-82.03125
121.859375,-48.33984375,11.71875,-11.71875,-66.40625
121.86328125,-37.109375,13.671875,-1.953125,-50.29296875
121.8671875,-19.04296875,14.6484375,-3.41796875,-52.734375
121.87109375,-3.41796875,8.7890625,-5.37109375,-2.44140625
121.875,-6.34765625,0.9765625,-7.32421875,-29.78515625
121.87890625,-16.6015625,3.41796875,-0.9765625,-45.8984375
121.8828125,-12.20703125,4.8828125,6.8359375,-37.109375
121.88671875,-19.04296875,2.9296875,9.27734375,-34.1796875
121.890625,-25.87890625,5.859375,9.27734375,6.34765625
121.89453125,-51.7578125,8.30078125,4.39453125,-22.94921875
121.8984375,-41.9921875,-1.953125,-6.34765625,-44.43359375
121.90234375,-60.546875,-14.16015625,-17.08984375,-39.55078125
121.90625,-30.76171875,-16.11328125,-1.46484375,-26.3671875
121.91015625,-12.20703125,-6.8359375,15.13671875,0.0
121.9140625,-55.17578125,-4.39453125,2.9296875,-26.85546875
121.91796875,-19.04296875,-10.7421875,-4.39453125,-46.38671875
121.921875,-50.78125,-14.6484375,-5.37109375,-69.3359375
121.92578125,-54.6875,-14.16015625,-7.8125,-5.859375
121.9296875,41.015625,-28.80859375,-20.99609375,-4.39453125
121.93359375,-51.26953125,-36.1328125,-31.73828125,-79.1015625
121.9375,-64.453125,-40.0390625,-39.0625,-65.91796875
121.94140625,64.94140625,-37.59765625,-41.015625,-52.734375
121.9453125,-17.08984375,-25.390625,-29.78515625,-23.4375
121.94921875,-71.77734375,-29.296875,-32.2265625,-32.71484375
121.953125,0.0,-32.71484375,-36.62109375,-48.33984375
121.95703125,-4.39453125,-27.34375,-47.36328125,-90.33203125
121.9609375,-36.1328125,-24.90234375,-55.6640625,-103.515625
121.96484375,-36.62109375,-27.34375,-56.640625,-75.1953125
121.96875,-93.26171875,-34.1796875,-70.3125,-64.453125
121.97265625,-115.72265625,-35.64453125,-76.66015625,-39.55078125
121.9765625,-46.38671875,-25.87890625,-75.68359375,-72.75390625
121.98046875,-44.43359375,-15.625,-70.80078125,-68.359375
121.984375,-34.1796875,-17.08984375,-69.82421875,-34.1796875
121.98828125,0.0,-20.5078125,-75.68359375,-101.07421875
121.9921875,-12.6953125,-24.90234375,-82.03125,-104.4921875
121.99609375,-20.01953125,-17.08984375,-79.58984375,-17.08984375
122.0,32.71484375,-2.44140625,-69.82421875,-48.828125
122.00390625,36.62109375,-2.44140625,-75.1953125,-47.36328125
122.0078125,30.2734375,-6.8359375,-86.42578125,-63.4765625
122.01171875,71.77734375,-7.32421875,-85.9375,-72.265625
122.015625,69.3359375,-4.39453125,-80.078125,-12.20703125
122.01953125,48.828125,-1.46484375,-72.265625,-41.015625
122.0234375,42.48046875,0.0,-68.359375,-38.0859375
122.02734375,-20.99609375,-6.34765625,-65.91796875,-30.2734375
122.03125,-15.625,-5.37109375,-59.5703125,-13.671875
122.03515625,-22.4609375,-2.9296875,-58.59375,-38.0859375
122.0390625,-20.01953125,1.953125,-55.17578125,-71.77734375
122.04296875,38.0859375,2.9296875,-46.38671875,-0.9765625
122.046875,12.20703125,-7.8125,-46.38671875,37.59765625
122.05078125,-46.875,-15.625,-44.921875,-0.48828125
122.0546875,-30.2734375,-14.6484375,-37.109375,-42.48046875
122.05859375,-21.484375,-20.5078125,-37.109375,-47.8515625
122.0625,-21.484375,-26.3671875,-40.52734375,-9.765625
122.06640625,-15.13671875,-31.25,-41.9921875,-32.71484375
122.0703125,5.37109375,-26.85546875,-39.55078125,-70.80078125
122.07421875,-27.83203125,-26.85546875,-36.1328125,-24.4140625
122.078125,-42.96875,-23.92578125,-22.4609375,18.5546875
122.08203125,-21.97265625,-21.97265625,-19.53125,14.6484375
122.0859375,-19.04296875,-26.85546875,-30.2734375,-17.578125
122.08984375,-39.55078125,-38.57421875,-41.50390625,-26.85546875
122.09375,-34.66796875,-40.0390625,-32.71484375,32.71484375
122.09765625,-29.296875,-33.203125,-23.4375,-21.97265625
122.1015625,-14.6484375,-27.83203125,-22.4609375,-60.546875
122.10546875,-20.01953125,-32.2265625,-26.85546875,-40.52734375
122.109375,-26.3671875,-38.0859375,-38.0859375,-48.33984375
122.11328125,-39.0625,-33.203125,-37.59765625,-28.80859375
122.1171875,-43.45703125,-36.62109375,-32.2265625,-3.90625
122.12109375,-32.71484375,-38.57421875,-35.15625,-0.48828125
122.125,-67.3828125,-37.59765625,-30.2734375,-7.8125
122.12890625,-40.0390625,-38.0859375,-21.484375,-11.23046875
122.1328125,-13.18359375,-29.296875,-15.625,-6.8359375
122.13671875,-58.10546875,-22.94921875,-15.13671875,-56.640625
122.140625,-74.21875,-17.08984375,-9.27734375,12.6953125
122.14453125,-52.24609375,-19.04296875,-4.8828125,45.41015625
122.1484375,-10.7421875,-23.92578125,-13.671875,-44.43359375
122.15234375,-41.9921875,-22.94921875,-10.7421875,-41.50390625
122.15625,-23.92578125,-21.97265625,-2.9296875,-30.2734375
122.16015625,36.1328125,-27.83203125,-16.11328125,-54.19921875
122.1640625,-51.26953125,-43.9453125,-26.85546875,-41.015625
122.16796875,-108.88671875,-54.19921875,-24.90234375,-77.63671875
122.171875,-63.96484375,-50.29296875,-24.90234375,-119.62890625
122.17578125,-45.8984375,-46.38671875,-20.01953125,-50.29296875
122.1796875,-37.59765625,-57.12890625,-27.83203125,-41.9921875
122.18359375,26.85546875,-62.98828125,-37.109375,-57.6171875
122.1875,-9.765625,-53.7109375,-24.90234375,-52.24609375
122.19140625,-58.59375,-49.31640625,-16.6015625,-82.03125
122.1953125,-13.671875,-38.57421875,-7.32421875,-56.640625
122.19921875,1.953125,-34.66796875,-4.39453125,-21.97265625
122.203125,-45.8984375,-39.0625,-9.27734375,-49.8046875
122.20703125,-51.7578125,-40.52734375,-7.8125,-38.0859375
122.2109375,4.8828125,-38.57421875,-3.41796875,-19.04296875
122.21484375,-16.6015625,-37.109375,-4.8828125,-76.171875
122.21875,-29.78515625,-29.78515625,4.8828125,-83.49609375
122.22265625,-16.11328125,-18.06640625,19.53125,-47.36328125
122.2265625,0.9765625,-14.16015625,20.01953125,-36.1328125
122.23046875,-3.41796875,-19.04296875,10.25390625,-50.29296875
122.234375,-22.4609375,-20.01953125,7.8125,-65.4296875
122.23828125,-15.625,-18.5546875,11.23046875,-40.52734375
122.2421875,-26.85546875,-23.92578125,6.34765625,-15.625
122.24609375,-59.08203125,-32.2265625,-6.34765625,-53.22265625
122.25,-39.0625,-34.1796875,-5.859375,-69.82421875
122.25390625,2.9296875,-30.76171875,2.9296875,-52.734375
122.2578125,-17.08984375,-23.4375,3.41796875,-43.9453125
122.26171875,-41.50390625,-20.5078125,1.953125,-54.19921875
122.265625,-30.2734375,-16.6015625,9.27734375,-83.49609375
122.26953125,6.34765625,-12.6953125,17.08984375,-96.19140625
122.2734375,-36.62109375,-13.18359375,7.32421875,-63.96484375
122.27734375,-26.85546875,-11.23046875,3.90625,-27.83203125
122.28125,-9.765625,-18.5546875,12.6953125,-49.31640625
122.28515625,5.859375,-23.4375,10.7421875,-74.70703125
122.2890625,-20.99609375,-21.484375,11.71875,-62.01171875
122.29296875,-58.10546875,-21.97265625,14.6484375,1.953125
122.296875,-35.15625,-23.4375,7.32421875,-45.41015625
122.30078125,-54.6875,-22.4609375,-0.48828125,-115.234375
122.3046875,-28.80859375,-18.5546875,0.48828125,-102.5390625
122.30859375,-13.671875,-25.87890625,-4.39453125,-95.21484375
122.3125,-39.0625,-35.15625,-12.6953125,-73.73046875
122.31640625,-34.66796875,-40.0390625,-15.625,-63.96484375
122.3203125,-41.015625,-43.45703125,-18.5546875,-110.83984375
122.32421875,-58.59375,-42.96875,-21.97265625,-100.5859375
122.328125,-21.97265625,-43.45703125,-22.4609375,-34.66796875
122.33203125,-24.90234375,-42.96875,-18.5546875,-85.9375
122.3359375,-77.1484375,-31.25,-14.6484375,-102.05078125
122.33984375,-67.87109375,-24.90234375,-26.85546875,-62.5
122.34375,-42.48046875,-24.90234375,-30.2734375,-117.67578125
122.34765625,-73.2421875,-28.80859375,-14.16015625,-119.62890625
122.3515625,-116.2109375,-40.0390625,-9.27734375,-129.8828125
122.35546875,-151.85546875,-51.7578125,-17.08984375,-178.22265625
122.359375,-173.33984375,-59.5703125,-19.04296875,-196.2890625
122.36328125,-206.54296875,-68.359375,-17.08984375,-213.37890625
122.3671875,-242.1875,-77.63671875,-20.5078125,-242.67578125
122.37109375,-283.203125,-86.42578125,-24.4140625,-243.65234375
122.375,-293.45703125,-100.09765625,-12.6953125,-238.28125
122.37890625,-275.390625,-102.05078125,-7.32421875,-236.81640625
122.3828125,-303.7109375,-94.23828125,-5.859375,-244.62890625
122.38671875,-320.3125,-94.7265625,-0.48828125,-304.6875
122.390625,-330.078125,-96.19140625,1.46484375,-331.0546875
122.39453125,-323.2421875,-99.609375,3.90625,-257.32421875
122.3984375,-312.01171875,-102.5390625,5.859375,-192.3828125
122.40234375,-322.75390625,-102.5390625,10.25390625,-227.5390625
122.40625,-278.3203125,-102.05078125,17.578125,-199.21875
122.41015625,-262.20703125,-100.09765625,24.90234375,-169.43359375
122.4140625,-244.140625,-99.609375,26.85546875,-163.0859375
122.41796875,-203.61328125,-101.5625,20.99609375,-128.90625
122.421875,-204.1015625,-101.07421875,20.99609375,-108.88671875
122.42578125,-182.6171875,-88.8671875,27.83203125,-95.703125
122.4296875,-157.2265625,-75.1953125,37.109375,-69.3359375
122.43359375,-152.34375,-71.2890625,42.48046875,-60.546875
122.4375,-149.90234375,-68.84765625,36.1328125,-90.8203125
122.44140625,-102.5390625,-66.89453125,35.64453125,-40.0390625
122.4453125,-73.73046875,-65.91796875,28.3203125,-1.46484375
122.44921875,-64.453125,-65.91796875,19.04296875,-15.13671875
122.453125,-83.49609375,-65.91796875,11.71875,-33.69140625
122.45703125,-86.42578125,-67.87109375,1.46484375,-3.90625
122.4609375,-46.875,-63.4765625,0.0,28.3203125
122.46484375,-36.62109375,-55.17578125,0.48828125,3.90625
122.46875,-23.92578125,-51.26953125,-3.41796875,-16.11328125
122.47265625,-3.90625,-49.8046875,-7.8125,-43.9453125
122.4765625,-19.53125,-47.36328125,-14.6484375,-9.27734375
122.48046875,-31.73828125,-48.828125,-20.01953125,16.6015625
122.484375,0.9765625,-47.8515625,-18.5546875,-24.4140625
122.48828125,6.8359375,-43.9453125,-18.06640625,28.80859375
122.4921875,-4.39453125,-43.9453125,-18.5546875,42.48046875
122.49609375,15.13671875,-36.62109375,-12.6953125,4.8828125
122.5,40.52734375,-32.71484375,-13.18359375,20.5078125
122.50390625,22.94921875,-37.59765625,-20.5078125,-19.04296875
122.5078125,-0.48828125,-39.55078125,-23.4375,16.11328125
122.51171875,0.9765625,-43.45703125,-25.390625,65.91796875
122.515625,-34.66796875,-47.36328125,-29.296875,-29.296875
122.51953125,-43.45703125,-50.78125,-33.203125,-61.03515625
122.5234375,-38.57421875,-57.12890625,-42.96875,-4.8828125
122.52734375,-10.25390625,-66.40625,-54.19921875,10.7421875
122.53125,22.94921875,-59.08203125,-49.31640625,20.01953125
122.53515625,-2.9296875,-53.22265625,-42.96875,26.3671875
122.5390625,-38.57421875,-48.33984375,-41.50390625,-3.41796875
122.54296875,-36.1328125,-35.64453125,-35.64453125,0.9765625
122.546875,4.39453125,-34.1796875,-37.59765625,-18.06640625
122.55078125,5.37109375,-42.48046875,-38.57421875,-4.8828125
122.5546875,-35.15625,-47.36328125,-41.50390625,36.62109375
122.55859375,19.53125,-46.38671875,-45.41015625,46.38671875
122.5625,36.62109375,-44.921875,-43.45703125,-9.765625
122.56640625,-31.25,-39.55078125,-40.52734375,-27.83203125
122.5703125,-14.16015625,-34.66796875,-40.52734375,-3.90625
122.57421875,3.90625,-32.2265625,-39.0625,9.765625
122.578125,-20.5078125,-35.15625,-36.1328125,3.41796875
122.58203125,-28.3203125,-37.109375,-37.59765625,43.9453125
122.5859375,9.765625,-33.69140625,-42.96875,19.53125
122.58984375,26.85546875,-29.296875,-46.38671875,-38.57421875
122.59375,-12.6953125,-28.3203125,-47.36328125,0.0
122.59765625,-56.640625,-32.71484375,-44.921875,-8.7890625
122.6015625,-6.8359375,-29.296875,-40.52734375,11.23046875
122.60546875,10.7421875,-30.2734375,-45.8984375,21.97265625
122.609375,-0.48828125,-39.55078125,-50.78125,-7.8125
122.61328125,-14.6484375,-41.015625,-44.921875,-18.5546875
122.6171875,-26.3671875,-39.55078125,-42.96875,-29.78515625
122.62109375,-9.765625,-43.45703125,-45.41015625,-10.25390625
122.625,-36.62109375,-38.57421875,-40.0390625,0.0
122.62890625,-67.3828125,-39.0625,-40.0390625,12.6953125
122.6328125,16.6015625,-41.50390625,-39.55078125,-40.0390625
122.63671875,13.671875,-35.64453125,-38.0859375,-63.96484375
122.640625,-38.0859375,-34.1796875,-41.015625,-29.78515625
122.64453125,-15.625,-32.2265625,-43.45703125,-28.3203125
122.6484375,-44.43359375,-31.25,-39.55078125,-30.76171875
122.65234375,-23.92578125,-31.73828125,-32.2265625,1.953125
122.65625,-3.41796875,-27.34375,-25.87890625,-6.34765625
122.66015625,-16.11328125,-26.85546875,-24.90234375,-33.69140625
122.6640625,-31.73828125,-29.78515625,-33.69140625,-10.25390625
122.66796875,-50.78125,-33.69140625,-42.48046875,-22.94921875
122.671875,-35.15625,-30.76171875,-38.0859375,-33.203125
122.67578125,-16.6015625,-32.2265625,-37.109375,-41.015625
122.6796875,-25.87890625,-31.73828125,-37.59765625,-12.20703125
122.68359375,-12.6953125,-20.01953125,-31.73828125,3.90625
122.6875,-22.94921875,-17.08984375,-25.87890625,0.0
122.69140625,-13.671875,-19.53125,-23.4375,22.4609375
122.6953125,-38.57421875,-24.90234375,-25.87890625,-42.96875
122.69921875,-10.7421875,-29.296875,-35.64453125,-60.05859375
122.703125,33.69140625,-32.2265625,-41.015625,-15.13671875
122.70703125,-60.05859375,-46.38671875,-36.1328125,-39.55078125
122.7109375,-92.28515625,-45.8984375,-32.2265625,-24.90234375
122.71484375,-85.44921875,-41.50390625,-32.71484375,-44.43359375
122.71875,-44.921875,-45.41015625,-32.71484375,-52.24609375
122.72265625,-73.2421875,-48.828125,-33.203125,-47.36328125
122.7265625,-79.1015625,-54.6875,-34.66796875,-57.6171875
122.73046875,-62.01171875,-56.640625,-39.55078125,-87.40234375
122.734375,-75.68359375,-49.8046875,-47.36328125,-90.33203125
122.73828125,-55.17578125,-41.50390625,-41.50390625,-37.59765625
122.7421875,-51.26953125,-36.62109375,-33.69140625,-26.3671875
122.74609375,-60.546875,-35.64453125,-32.71484375,-34.1796875
122.75,-67.87109375,-32.2265625,-30.76171875,-28.3203125
122.75390625,-46.38671875,-27.83203125,-29.296875,-51.26953125
122.7578125,-46.38671875,-32.2265625,-30.2734375,-44.921875
122.76171875,-60.05859375,-37.59765625,-37.109375,-14.6484375
122.765625,-63.4765625,-42.96875,-41.015625,-17.578125
122.76953125,-29.78515625,-43.9453125,-41.50390625,-68.359375
122.7734375,-8.7890625,-48.33984375,-45.41015625,-111.328125
122.77734375,-86.42578125,-52.24609375,-51.26953125,-99.12109375
122.78125,-117.1875,-49.31640625,-48.33984375,-82.03125
122.78515625,-65.91796875,-50.78125,-45.8984375,-73.73046875
122.7890625,-49.31640625,-60.05859375,-52.24609375,-72.265625
122.79296875,-54.19921875,-58.59375,-52.734375,-62.01171875
122.796875,-65.4296875,-55.17578125,-50.78125,-54.19921875
122.80078125,-83.984375,-58.10546875,-53.7109375,-74.21875
122.8046875,-70.80078125,-55.17578125,-56.15234375,-107.421875
122.80859375,-52.24609375,-61.03515625,-61.5234375,-81.0546875
122.8125,-63.96484375,-61.03515625,-57.6171875,-78.61328125
122.81640625,-65.4296875,-55.17578125,-46.875,-75.68359375
122.8203125,-46.875,-54.19921875,-42.96875,-60.546875
122.82421875,-64.453125,-52.24609375,-46.38671875,-63.96484375
122.828125,-67.87109375,-50.78125,-50.78125,-62.01171875
122.83203125,-52.734375,-51.26953125,-49.31640625,-86.9140625
122.8359375,-43.45703125,-48.828125,-43.9453125,-78.125
122.83984375,-76.66015625,-51.7578125,-45.41015625,-89.35546875
122.84375,-111.81640625,-52.24609375,-50.29296875,-97.16796875
122.84765625,-67.87109375,-50.78125,-45.41015625,-70.80078125
122.8515625,-44.921875,-48.33984375,-35.15625,-63.96484375
122.85546875,-38.0859375,-41.9921875,-40.0390625,-81.0546875
122.859375,-75.1953125,-44.921875,-49.8046875,-84.47265625
122.86328125,-85.44921875,-51.26953125,-51.26953125,-43.45703125
122.8671875,-81.54296875,-55.17578125,-53.7109375,-14.6484375
122.87109375,-64.453125,-55.17578125,-56.640625,-69.3359375
122.875,-88.8671875,-49.31640625,-59.08203125,-110.83984375
122.87890625,-110.3515625,-52.24609375,-58.10546875,-96.19140625
122.8828125,-40.0390625,-59.08203125,-54.19921875,-83.49609375
122.88671875,-51.26953125,-59.08203125,-56.15234375,-104.98046875
122.890625,-80.078125,-62.01171875,-53.22265625,-54.6875
122.89453125,-74.21875,-62.5,-48.33984375,-25.390625
122.8984375,-74.70703125,-56.640625,-53.22265625,-61.5234375
122.90234375,-81.54296875,-48.33984375,-52.734375,-52.734375
122.90625,-119.62890625,-47.36328125,-47.8515625,-47.8515625
122.91015625,-153.80859375,-51.26953125,-51.7578125,-66.40625
122.9140625,-140.625,-45.41015625,-45.8984375,-70.3125
122.91796875,-145.5078125,-45.8984375,-42.96875,-70.80078125
122.921875,-185.546875,-48.33984375,-49.8046875,-22.4609375
122.92578125,-158.203125,-38.0859375,-44.921875,-32.2265625
122.9296875,-148.92578125,-31.25,-40.52734375,-73.2421875
122.93359375,-164.0625,-26.3671875,-32.2265625,-75.1953125
122.9375,-119.62890625,-24.90234375,-25.87890625,-80.56640625
122.94140625,-121.58203125,-30.76171875,-36.62109375,-24.4140625
122.9453125,-147.94921875,-38.0859375,-46.875,-25.390625
122.94921875,-117.67578125,-44.43359375,-47.36328125,-59.5703125
122.953125,-104.98046875,-39.0625,-42.48046875,-70.80078125
122.95703125,-104.00390625,-31.25,-34.66796875,-47.8515625
122.9609375,-86.9140625,-34.66796875,-32.2265625,-6.8359375
122.96484375,-73.73046875,-37.59765625,-34.66796875,-10.25390625
122.96875,-72.75390625,-33.69140625,-29.78515625,-64.94140625
122.97265625,-79.58984375,-26.85546875,-32.71484375,-66.40625
122.9765625,-74.70703125,-24.90234375,-30.76171875,17.578125
122.98046875,-78.61328125,-24.4140625,-28.3203125,-19.04296875
122.984375,-78.61328125,-27.34375,-33.69140625,-61.5234375
122.98828125,-93.26171875,-31.73828125,-43.45703125,-33.69140625
122.9921875,-66.40625,-36.62109375,-46.875,-59.08203125
122.99609375,-54.19921875,-40.52734375,-45.41015625,-62.5
123.0,-40.52734375,-36.1328125,-37.109375,-15.13671875
123.00390625,4.8828125,-35.15625,-33.203125,2.9296875
123.0078125,-20.99609375,-40.52734375,-39.0625,-86.42578125
123.01171875,-23.92578125,-34.66796875,-40.52734375,-63.96484375
123.015625,2.9296875,-30.2734375,-42.48046875,-36.1328125
123.01953125,27.83203125,-33.203125,-45.41015625,-50.29296875
123.0234375,26.85546875,-41.9921875,-45.8984375,-47.8515625
123.02734375,10.7421875,-48.33984375,-50.29296875,-45.41015625
123.03125,46.875,-44.43359375,-48.828125,-34.1796875
123.03515625,60.546875,-44.43359375,-45.8984375,-43.9453125
123.0390625,62.01171875,-41.015625,-37.59765625,-33.69140625
123.04296875,68.84765625,-35.15625,-31.73828125,8.30078125
123.046875,25.87890625,-32.71484375,-31.25,-22.4609375
123.05078125,52.24609375,-30.76171875,-29.78515625,-43.45703125
123.0546875,21.484375,-27.34375,-28.80859375,-41.50390625
123.05859375,-12.20703125,-25.87890625,-28.3203125,-32.2265625
123.0625,-10.25390625,-34.1796875,-31.25,-34.1796875
123.06640625,-63.4765625,-42.96875,-37.109375,-52.734375
123.0703125,-56.15234375,-43.45703125,-36.1328125,-34.66796875
123.07421875,-12.20703125,-43.45703125,-37.59765625,-23.92578125
123.078125,-20.99609375,-38.0859375,-42.48046875,-43.45703125
123.08203125,-38.0859375,-36.1328125,-41.015625,-54.19921875
123.0859375,-42.48046875,-39.55078125,-37.109375,-31.25
123.08984375,-36.1328125,-40.52734375,-40.0390625,-51.7578125
123.09375,-39.0625,-33.203125,-35.64453125,-83.49609375
123.09765625,-43.9453125,-24.4140625,-28.3203125,-35.15625
123.1015625,-30.2734375,-29.78515625,-34.1796875,-16.6015625
123.10546875,-29.296875,-36.62109375,-39.55078125,-82.51953125
123.109375,-48.828125,-35.64453125,-33.203125,-62.98828125
123.11328125,-42.96875,-31.73828125,-33.203125,-34.1796875
123.1171875,-47.8515625,-34.66796875,-36.62109375,-48.33984375
123.12109375,-11.71875,-37.109375,-41.015625,-44.43359375
123.125,-47.36328125,-37.109375,-40.52734375,-50.29296875
123.12890625,-71.77734375,-40.0390625,-36.1328125,-74.70703125
123.1328125,-27.34375,-39.0625,-41.015625,-64.453125
123.13671875,-11.71875,-35.64453125,-41.015625,-42.96875
123.140625,-22.4609375,-38.57421875,-37.59765625,-34.66796875
123.14453125,-39.0625,-45.8984375,-46.875,-17.08984375
123.1484375,-43.9453125,-50.29296875,-51.7578125,-60.546875
123.15234375,-49.31640625,-49.31640625,-50.29296875,-78.125
123.15625,-33.69140625,-47.8515625,-52.734375,-38.57421875
123.16015625,-41.015625,-45.41015625,-55.17578125,-42.48046875
123.1640625,-38.57421875,-46.38671875,-61.03515625,-66.40625
123.16796875,-38.57421875,-54.19921875,-67.3828125,-67.87109375
123.171875,-60.546875,-53.22265625,-67.87109375,-58.10546875
123.17578125,-43.9453125,-48.828125,-66.40625,-61.03515625
123.1796875,-9.765625,-55.17578125,-69.82421875,-54.19921875
123.18359375,-51.7578125,-62.5,-70.80078125,-46.875
123.1875,-79.58984375,-57.12890625,-66.40625,-68.359375
123.19140625,-21.97265625,-51.26953125,-62.5,-55.17578125
123.1953125,-4.39453125,-50.29296875,-55.17578125,-61.03515625
123.19921875,-39.55078125,-45.8984375,-45.8984375,-42.96875
123.203125,-26.85546875,-45.8984375,-40.52734375,-34.66796875
123.20703125,-44.921875,-44.43359375,-45.41015625,-70.3125
123.2109375,-64.453125,-49.31640625,-46.875,-84.47265625
123.21484375,-44.921875,-50.29296875,-45.41015625,-73.2421875
123.21875,-46.875,-49.31640625,-47.8515625,-52.734375
123.22265625,-22.94921875,-47.36328125,-49.31640625,-34.66796875
123.2265625,33.69140625,-48.828125,-47.36328125,12.20703125
123.23046875,14.16015625,-51.26953125,-52.24609375,-39.0625
123.234375,-15.625,-44.43359375,-51.26953125,-77.63671875
123.23828125,-5.859375,-36.62109375,-47.36328125,-39.55078125
123.2421875,-19.53125,-33.69140625,-51.7578125,-43.9453125
123.24609375,-14.16015625,-38.57421875,-55.17578125,-60.546875
123.25,-21.484375,-41.015625,-49.8046875,-60.546875
123.25390625,-13.18359375,-41.50390625,-51.7578125,-48.33984375
123.2578125,-11.23046875,-48.33984375,-57.12890625,-42.48046875
123.26171875,-29.78515625,-55.17578125,-61.5234375,-35.64453125
123.265625,-20.01953125,-56.15234375,-70.3125,-57.6171875
123.26953125,-41.9921875,-58.10546875,-69.3359375,-44.43359375
123.2734375,-36.1328125,-56.640625,-64.453125,-44.921875
123.27734375,-22.4609375,-50.78125,-62.5,-62.01171875
123.28125,-42.48046875,-50.29296875,-54.6875,-41.50390625
123.28515625,-37.109375,-47.36328125,-56.640625,-75.68359375
123.2890625,4.8828125,-40.0390625,-63.96484375,-71.2890625
123.29296875,-43.45703125,-42.48046875,-60.05859375,-51.26953125
123.296875,-63.96484375,-39.0625,-53.22265625,-51.7578125
123.30078125,-15.13671875,-31.73828125,-43.45703125,-41.015625
123.3046875,-30.76171875,-36.62109375,-44.43359375,-54.19921875
123.30859375,-33.69140625,-39.55078125,-51.7578125,-52.734375
123.3125,-50.29296875,-42.96875,-56.15234375,-64.453125
123.31640625,-40.0390625,-47.36328125,-58.59375,-74.21875
123.3203125,-31.25,-49.31640625,-59.5703125,-56.15234375
123.32421875,-33.203125,-45.8984375,-60.546875,-43.45703125
123.328125,-56.640625,-43.9453125,-60.546875,-38.57421875
123.33203125,-63.96484375,-48.33984375,-62.01171875,-56.640625
123.3359375,-67.87109375,-48.828125,-60.05859375,-79.58984375
123.33984375,-83.49609375,-44.43359375,-58.10546875,-60.05859375
123.34375,-85.44921875,-45.41015625,-58.10546875,-90.33203125
123.34765625,-73.2421875,-44.43359375,-54.6875,-115.234375
123.3515625,-114.74609375,-38.0859375,-52.24609375,-151.3671875
123.35546875,-144.04296875,-38.57421875,-59.08203125,-169.921875
123.359375,-147.94921875,-38.0859375,-54.19921875,-183.10546875
123.36328125,-140.13671875,-34.66796875,-48.33984375,-186.03515625
123.3671875,-120.1171875,-39.55078125,-56.15234375,-164.0625
123.37109375,-155.76171875,-40.52734375,-55.6640625,-180.17578125
123.375,-167.96875,-34.1796875,-42.96875,-152.83203125
123.37890625,-166.9921875,-23.4375,-34.66796875,-123.53515625
123.3828125,-173.33984375,-20.01953125,-39.0625,-207.03125
123.38671875,-178.7109375,-23.4375,-33.69140625,-242.67578125
123.390625,-172.8515625,-19.53125,-21.97265625,-226.5625
123.39453125,-181.640625,-14.6484375,-28.3203125,-187.98828125
123.3984375,-172.36328125,-16.6015625,-32.71484375,-182.12890625
123.40234375,-150.87890625,-19.53125,-23.92578125,-185.546875
123.40625,-144.53125,-11.23046875,-17.08984375,-165.0390625
123.41015625,-148.92578125,-4.8828125,-18.5546875,-115.234375
123.4140625,-151.85546875,-13.18359375,-30.2734375,-127.44140625
123.41796875,-100.5859375,-24.4140625,-36.1328125,-177.24609375
123.421875,-97.65625,-20.5078125,-31.73828125,-156.73828125
123.42578125,-128.41796875,-26.3671875,-39.0625,-125.9765625
123.4296875,-99.609375,-34.66796875,-46.38671875,-100.5859375
123.43359375,-55.6640625,-24.4140625,-34.1796875,-46.38671875
123.4375,-49.8046875,-19.53125,-20.5078125,-69.82421875
123.44140625,-60.05859375,-18.5546875,-20.01953125,-67.3828125
123.4453125,-62.01171875,-19.04296875,-16.6015625,-37.109375
123.44921875,-21.484375,-15.13671875,-15.13671875,-59.5703125
123.453125,8.30078125,-10.25390625,-17.578125,-41.9921875
123.45703125,-11.23046875,-15.625,-11.71875,-22.4609375
123.4609375,-3.41796875,-18.06640625,-12.20703125,29.78515625
123.46484375,13.671875,-13.18359375,-19.53125,45.41015625
123.46875,19.04296875,-15.625,-28.80859375,12.20703125
123.47265625,19.04296875,-17.578125,-29.296875,-9.765625
123.4765625,23.4375,-14.16015625,-23.4375,14.6484375
123.48046875,25.87890625,-16.11328125,-27.83203125,12.20703125
123.484375,20.01953125,-18.5546875,-28.3203125,-5.37109375
123.48828125,13.671875,-19.04296875,-21.484375,44.921875
123.4921875,38.57421875,-14.6484375,-15.13671875,98.14453125
123.49609375,30.2734375,-8.7890625,-14.6484375,41.015625
123.5,55.6640625,-10.7421875,-20.5078125,5.859375
123.50390625,18.06640625,-6.8359375,-17.578125,32.71484375
123.5078125,14.16015625,-13.671875,-7.8125,52.24609375
123.51171875,54.6875,-21.484375,-12.6953125,33.203125
123.515625,19.53125,-20.01953125,-22.94921875,46.875
123.51953125,41.015625,-22.4609375,-22.94921875,69.3359375
123.5234375,82.51953125,-17.578125,-20.99609375,-0.48828125
123.52734375,31.25,-17.08984375,-20.5078125,18.06640625
123.53125,20.99609375,-17.08984375,-20.99609375,54.19921875
123.53515625,44.921875,-12.6953125,-18.06640625,37.59765625
123.5390625,34.1796875,-11.71875,-16.11328125,17.578125
123.54296875,33.69140625,-18.5546875,-26.3671875,32.71484375
123.546875,21.97265625,-27.83203125,-39.0625,14.16015625
123.55078125,9.27734375,-38.57421875,-48.33984375,16.11328125
123.5546875,38.57421875,-35.15625,-40.0390625,43.45703125
123.55859375,46.875,-31.73828125,-33.203125,40.0390625
123.5625,2.44140625,-37.109375,-39.0625,-2.44140625
123.56640625,5.859375,-30.76171875,-39.0625,-4.39453125
123.5703125,12.6953125,-24.4140625,-32.71484375,37.59765625
123.57421875,26.85546875,-19.53125,-31.25,59.5703125
123.578125,35.15625,-19.53125,-31.25,20.5078125
123.58203125,32.2265625,-21.484375,-28.3203125,15.625
123.5859375,24.4140625,-23.92578125,-31.25,33.69140625
123.58984375,60.05859375,-27.83203125,-29.296875,21.97265625
123.59375,54.6875,-25.390625,-26.85546875,27.34375
123.59765625,27.83203125,-26.3671875,-31.73828125,45.41015625
123.6015625,17.578125,-36.62109375,-41.015625,25.390625
123.60546875,-19.53125,-47.36328125,-59.08203125,-31.73828125
123.609375,-3.90625,-51.7578125,-65.4296875,-4.39453125
123.61328125,8.30078125,-44.43359375,-54.6875,5.859375
123.6171875,0.48828125,-33.203125,-42.96875,-7.8125
123.62109375,13.18359375,-29.78515625,-40.52734375,29.78515625
123.625,13.18359375,-35.15625,-45.8984375,16.11328125
123.62890625,6.8359375,-39.55078125,-53.7109375,-28.3203125
123.6328125,-12.20703125,-39.55078125,-49.31640625,-24.4140625
123.63671875,3.90625,-28.80859375,-34.1796875,-16.6015625
123.640625,14.16015625,-24.90234375,-21.97265625,6.34765625
123.64453125,0.9765625,-37.59765625,-27.83203125,29.296875
123.6484375,5.37109375,-36.62109375,-33.203125,16.11328125
123.65234375,0.0,-40.0390625,-38.57421875,-19.53125
123.65625,-7.32421875,-47.36328125,-45.41015625,-31.73828125
123.66015625,-24.4140625,-44.921875,-45.41015625,-24.90234375
123.6640625,-70.80078125,-37.59765625,-42.48046875,-4.8828125
123.66796875,-10.7421875,-38.0859375,-32.2265625,18.06640625
123.671875,32.71484375,-37.109375,-31.25,-6.34765625
123.67578125,23.92578125,-27.34375,-28.80859375,-1.46484375
123.6796875,6.34765625,-32.71484375,-29.78515625,10.25390625
123.68359375,-7.8125,-45.41015625,-34.66796875,-8.30078125
123.6875,-7.32421875,-45.41015625,-33.203125,-39.0625
123.69140625,-7.8125,-43.45703125,-35.64453125,-52.24609375
123.6953125,-2.9296875,-38.0859375,-38.0859375,32.2265625
123.69921875,-26.3671875,-41.50390625,-37.109375,21.484375
123.703125,-47.36328125,-43.45703125,-37.109375,-40.0390625
123.70703125,-31.25,-42.96875,-42.48046875,-9.27734375
123.7109375,-53.7109375,-45.41015625,-40.0390625,-19.04296875
123.71484375,-19.04296875,-44.921875,-47.8515625,-57.6171875
123.71875,5.859375,-43.9453125,-52.24609375,-34.66796875
123.72265625,-46.38671875,-41.9921875,-41.9921875,-17.08984375
123.7265625,-35.15625,-43.9453125,-45.41015625,-11.71875
123.73046875,-29.296875,-48.33984375,-51.26953125,16.6015625
123.734375,-58.59375,-38.57421875,-46.38671875,0.9765625
123.73828125,-45.41015625,-32.71484375,-50.29296875,-35.64453125
123.7421875,2.44140625,-36.62109375,-44.921875,-23.4375
123.74609375,5.37109375,-39.0625,-34.66796875,23.92578125
123.75,-22.94921875,-36.62109375,-45.8984375,-27.83203125
123.75390625,-39.0625,-39.0625,-58.10546875,-69.82421875
123.7578125,-38.0859375,-46.875,-55.17578125,-55.6640625
123.76171875,-43.9453125,-46.38671875,-55.6640625,-40.0390625
123.765625,-42.48046875,-42.96875,-56.640625,-21.97265625
123.76953125,-34.66796875,-43.45703125,-48.33984375,20.99609375
123.7734375,-30.2734375,-41.50390625,-46.875,-54.19921875
123.77734375,-59.08203125,-37.59765625,-49.8046875,-73.2421875
123.78125,-88.37890625,-32.2265625,-46.875,-20.99609375
123.78515625,-42.96875,-32.2265625,-40.0390625,5.859375
123.7890625,-31.25,-39.0625,-44.921875,-11.71875
123.79296875,-41.015625,-42.96875,-47.8515625,-47.36328125
123.796875,-30.76171875,-39.55078125,-46.875,-62.01171875
123.80078125,-34.66796875,-38.0859375,-50.29296875,-42.48046875
123.8046875,-41.9921875,-37.59765625,-44.921875,-18.06640625
123.80859375,-8.30078125,-32.2265625,-37.109375,-13.18359375
123.8125,-42.48046875,-31.73828125,-39.0625,-33.203125
123.81640625,-36.62109375,-29.78515625,-36.1328125,-40.0390625
123.8203125,-20.99609375,-29.296875,-34.66796875,-38.57421875
123.82421875,-38.0859375,-30.76171875,-39.0625,-29.78515625
123.828125,-28.80859375,-28.3203125,-31.73828125,-18.5546875
123.83203125,-31.25,-28.3203125,-27.34375,-7.8125
123.8359375,-15.13671875,-28.3203125,-31.25,-7.8125
123.83984375,6.8359375,-26.85546875,-34.1796875,-21.97265625
123.84375,-25.390625,-26.85546875,-35.15625,-10.25390625
123.84765625,-17.578125,-27.83203125,-39.55078125,-21.484375
123.8515625,-9.765625,-27.83203125,-37.59765625,-24.4140625
123.85546875,-29.296875,-29.78515625,-36.1328125,0.9765625
123.859375,-38.0859375,-31.73828125,-43.9453125,-28.80859375
123.86328125,-44.921875,-30.2734375,-47.8515625,-26.3671875
123.8671875,-42.96875,-33.69140625,-48.828125,-24.4140625
123.87109375,-30.76171875,-40.0390625,-55.17578125,-76.171875
123.875,-34.66796875,-39.0625,-55.6640625,-34.1796875
123.87890625,-5.859375,-38.0859375,-52.24609375,3.90625
123.8828125,-26.85546875,-40.0390625,-50.29296875,-15.13671875
123.88671875,-61.5234375,-41.015625,-55.17578125,-36.1328125
123.890625,-25.390625,-40.0390625,-57.6171875,-22.94921875
123.89453125,-11.23046875,-42.48046875,-58.10546875,-13.18359375
123.8984375,-40.0390625,-46.38671875,-61.03515625,-63.96484375
123.90234375,-59.5703125,-41.015625,-54.6875,-59.08203125
123.90625,-59.08203125,-36.62109375,-48.828125,-35.64453125
123.91015625,-60.546875,-38.57421875,-49.31640625,-31.73828125
123.9140625,-37.109375,-41.9921875,-52.734375,-43.9453125
123.91796875,-37.59765625,-37.59765625,-48.828125,-57.12890625
123.921875,-46.38671875,-30.2734375,-37.59765625,-41.50390625
123.92578125,-35.15625,-27.34375,-31.25,-13.18359375
123.9296875,-43.9453125,-27.83203125,-39.0625,-31.73828125
123.93359375,-50.78125,-31.73828125,-48.33984375,-43.9453125
123.9375,-47.8515625,-33.69140625,-42.48046875,-7.32421875
123.94140625,-35.64453125,-33.69140625,-38.57421875,-20.99609375
123.9453125,-36.1328125,-32.71484375,-39.55078125,-43.45703125
123.94921875,-43.9453125,-34.1796875,-40.52734375,-70.80078125
123.953125,-48.33984375,-34.1796875,-42.96875,-48.33984375
123.95703125,-55.6640625,-33.69140625,-44.43359375,21.484375
123.9609375,-48.828125,-36.62109375,-40.52734375,-33.69140625
123.96484375,-19.53125,-33.69140625,-28.80859375,-24.4140625
123.96875,-34.66796875,-38.0859375,-33.69140625,-26.85546875
123.97265625,-57.12890625,-42.48046875,-41.50390625,-65.91796875
123.9765625,-60.05859375,-39.55078125,-47.8515625,-38.57421875
123.98046875,-49.8046875,-45.41015625,-50.78125,-47.8515625
123.984375,-47.36328125,-48.828125,-43.45703125,-60.05859375
123.98828125,-50.29296875,-43.9453125,-46.875,-66.40625
123.9921875,-46.38671875,-43.9453125,-51.7578125,-51.7578125
123.99609375,-31.73828125,-44.921875,-50.78125,-42.48046875
124.0,-34.66796875,-45.41015625,-46.38671875,-42.96875
124.00390625,-46.38671875,-40.0390625,-41.50390625,-44.921875
124.0078125,-34.1796875,-37.59765625,-40.0390625,-52.734375
124.01171875,-48.33984375,-38.0859375,-38.57421875,-47.36328125
124.015625,-32.71484375,-33.69140625,-34.66796875,-44.921875
124.01953125,-29.78515625,-41.50390625,-42.48046875,-45.41015625
124.0234375,-39.0625,-43.9453125,-40.52734375,-27.34375
124.02734375,-25.390625,-40.52734375,-33.69140625,-35.64453125
124.03125,-34.1796875,-42.96875,-36.62109375,-8.30078125
124.03515625,-44.921875,-42.96875,-42.48046875,-29.78515625
124.0390625,-39.55078125,-44.43359375,-45.8984375,-41.50390625
124.04296875,-44.43359375,-46.875,-44.43359375,-57.6171875
124.046875,-41.9921875,-41.9921875,-40.0390625,-48.33984375
124.05078125,-50.78125,-45.41015625,-41.015625,-27.83203125
124.0546875,-38.0859375,-52.24609375,-47.36328125,-33.203125
124.05859375,-19.04296875,-47.36328125,-42.48046875,9.765625
124.0625,-30.76171875,-41.50390625,-38.57421875,-8.7890625
124.06640625,-50.29296875,-45.8984375,-45.41015625,-72.265625
124.0703125,-42.96875,-48.828125,-50.78125,-86.9140625
124.07421875,-40.52734375,-38.57421875,-40.0390625,-66.89453125
124.078125,-39.0625,-36.1328125,-32.71484375,-51.7578125
124.08203125,-23.4375,-40.0390625,-33.203125,-31.73828125
124.0859375,-21.97265625,-36.1328125,-34.1796875,-12.6953125
124.08984375,-18.5546875,-34.66796875,-34.66796875,-21.97265625
124.09375,-33.69140625,-35.64453125,-33.203125,-33.69140625
124.09765625,-32.71484375,-36.62109375,-39.0625,-64.94140625
124.1015625,-22.94921875,-37.59765625,-40.52734375,-62.01171875
124.10546875,-27.83203125,-33.203125,-36.62109375,-5.859375
124.109375,-10.7421875,-31.25,-46.38671875,-22.94921875
124.11328125,0.48828125,-34.1796875,-45.8984375,-35.64453125
124.1171875,-40.52734375,-34.66796875,-30.76171875,-61.5234375
124.12109375,-67.3828125,-33.203125,-38.0859375,-101.07421875
124.125,-35.64453125,-34.66796875,-44.921875,-36.1328125
124.12890625,-40.52734375,-39.55078125,-40.52734375,-1.953125
124.1328125,-34.66796875,-40.52734375,-36.1328125,-9.765625
124.13671875,-10.25390625,-38.0859375,-37.59765625,-20.99609375
124.140625,-34.66796875,-38.0859375,-45.8984375,-16.6015625
124.14453125,-37.59765625,-41.50390625,-45.41015625,-33.203125
124.1484375,-31.73828125,-39.55078125,-40.0390625,-55.6640625
124.15234375,-53.7109375,-38.0859375,-41.015625,-53.7109375
124.15625,-51.26953125,-39.55078125,-47.36328125,-48.33984375
124.16015625,-53.22265625,-40.52734375,-49.8046875,-38.0859375
124.1640625,-58.59375,-38.0859375,-45.41015625,-33.203125
124.16796875,-31.73828125,-36.62109375,-43.9453125,-55.6640625
124.171875,-34.1796875,-42.96875,-49.8046875,-73.2421875
124.17578125,-52.734375,-46.875,-47.36328125,-23.4375
124.1796875,-50.78125,-45.41015625,-48.33984375,-31.25
124.18359375,-16.11328125,-42.48046875,-47.8515625,-50.78125
124.1875,0.9765625,-44.921875,-52.24609375,-37.109375
124.19140625,-69.3359375,-43.45703125,-57.12890625,-32.71484375
124.1953125,-83.49609375,-41.015625,-49.8046875,-32.2265625
124.19921875,-72.265625,-45.41015625,-43.9453125,-43.9453125
124.203125,-97.65625,-40.0390625,-41.9921875,-38.0859375
124.20703125,-85.44921875,-37.59765625,-37.109375,-18.06640625
124.2109375,-59.08203125,-35.64453125,-38.0859375,-12.20703125
124.21484375,-83.0078125,-33.203125,-37.59765625,-29.296875
124.21875,-66.40625,-36.62109375,-33.69140625,3.90625
124.22265625,-57.6171875,-37.59765625,-33.203125,-6.8359375
124.2265625,-40.0390625,-34.66796875,-29.296875,-53.7109375
124.23046875,-36.1328125,-31.25,-28.3203125,-25.87890625
124.234375,-50.78125,-33.203125,-34.1796875,-36.1328125
124.23828125,-48.828125,-32.2265625,-35.64453125,-34.66796875
124.2421875,-35.15625,-23.92578125,-33.69140625,-5.859375
124.24609375,-32.71484375,-25.390625,-39.0625,-14.6484375
124.25,-35.15625,-35.15625,-43.45703125,-13.671875
124.25390625,-39.0625,-38.0859375,-40.52734375,-44.43359375
124.2578125,-53.7109375,-34.1796875,-38.57421875,-60.05859375
124.26171875,-49.8046875,-29.78515625,-35.15625,18.5546875
124.265625,-35.64453125,-29.78515625,-30.2734375,9.765625
124.26953125,-40.0390625,-34.1796875,-37.59765625,-16.11328125
124.2734375,-53.7109375,-39.0625,-44.921875,-20.5078125
124.27734375,-46.875,-43.9453125,-42.96875,-14.16015625
124.28125,-42.48046875,-37.59765625,-39.0625,9.765625
124.28515625,-38.57421875,-28.80859375,-37.59765625,-35.15625
124.2890625,-23.4375,-34.66796875,-42.48046875,-79.1015625
124.29296875,-33.203125,-36.62109375,-47.8515625,-54.19921875
124.296875,-25.390625,-29.78515625,-41.9921875,-12.6953125
124.30078125,-22.4609375,-25.390625,-33.203125,6.34765625
124.3046875,-32.71484375,-26.3671875,-33.69140625,0.48828125
124.30859375,-56.640625,-31.73828125,-42.96875,-24.90234375
124.3125,-64.94140625,-30.76171875,-44.43359375,-50.78125
124.31640625,-41.015625,-34.1796875,-41.9921875,-51.26953125
124.3203125,-52.734375,-33.69140625,-41.9921875,-59.08203125
124.32421875,-42.48046875,-27.83203125,-30.2734375,-38.0859375
124.328125,-3.90625,-24.90234375,-21.484375,12.20703125
124.33203125,-18.5546875,-25.87890625,-31.25,-29.296875
124.3359375,-34.66796875,-30.2734375,-37.109375,-32.71484375
124.33984375,-38.57421875,-27.83203125,-36.62109375,-26.3671875
124.34375,-25.87890625,-26.85546875,-40.52734375,-43.9453125
124.34765625,-13.671875,-29.296875,-43.9453125,-21.484375
124.3515625,-35.15625,-33.203125,-41.50390625,-25.390625
124.35546875,-42.48046875,-33.69140625,-39.0625,-16.11328125
124.359375,-60.546875,-34.66796875,-46.875,-44.921875
124.36328125,-64.453125,-38.0859375,-51.7578125,-54.6875
124.3671875,-62.01171875,-35.64453125,-43.9453125,-9.765625
124.37109375,-63.96484375,-36.62109375,-46.875,-8.30078125
124.375,-33.203125,-40.0390625,-46.875,-49.31640625
124.37890625,-27.34375,-43.9453125,-47.8515625,-63.96484375
124.3828125,-30.76171875,-43.9453125,-50.29296875,-56.640625
124.38671875,-18.5546875,-38.57421875,-43.45703125,-52.24609375
124.390625,-21.97265625,-36.1328125,-42.48046875,-28.80859375
124.39453125,-38.0859375,-29.296875,-35.64453125,-21.97265625
124.3984375,-19.04296875,-25.87890625,-33.69140625,-45.8984375
124.40234375,-32.2265625,-32.71484375,-40.52734375,-26.85546875
124.40625,-74.70703125,-35.15625,-40.52734375,-24.4140625
124.41015625,-56.15234375,-35.15625,-36.62109375,-42.48046875
124.4140625,-22.4609375,-36.1328125,-31.25,-35.64453125
124.41796875,-25.390625,-35.15625,-34.1796875,-48.828125
124.421875,-48.33984375,-37.109375,-35.64453125,-51.7578125
124.42578125,-34.1796875,-33.203125,-30.76171875,-33.203125
124.4296875,-6.8359375,-35.15625,-28.80859375,-10.7421875
124.43359375,-10.7421875,-35.15625,-27.83203125,4.8828125
124.4375,-25.87890625,-31.73828125,-28.80859375,-11.71875
124.44140625,-8.7890625,-31.25,-31.25,-45.8984375
124.4453125,-43.45703125,-28.80859375,-25.390625,-59.5703125
124.44921875,-63.4765625,-24.4140625,-23.92578125,-55.17578125
124.453125,-19.53125,-28.3203125,-31.73828125,-24.90234375
124.45703125,-7.32421875,-29.78515625,-35.15625,-13.671875
124.4609375,-24.4140625,-26.3671875,-29.296875,-24.90234375
124.46484375,-15.625,-28.80859375,-26.85546875,-24.4140625
124.46875,-4.8828125,-25.390625,-27.34375,-34.1796875
124.47265625,-28.80859375,-21.484375,-24.4140625,-16.6015625
124.4765625,-37.59765625,-27.34375,-23.92578125,7.32421875
124.48046875,-27.34375,-33.203125,-32.2265625,-19.53125
124.484375,-27.83203125,-30.76171875,-34.1796875,-41.015625
124.48828125,-46.38671875,-34.66796875,-38.57421875,-61.03515625
124.4921875,-40.52734375,-42.48046875,-46.38671875,-49.8046875
124.49609375,-58.59375,-42.96875,-50.29296875,-14.6484375
124.5,-65.91796875,-37.109375,-44.43359375,-52.24609375
124.50390625,-46.875,-26.3671875,-36.1328125,-56.15234375
124.5078125,-38.57421875,-30.2734375,-44.43359375,-30.2734375
124.51171875,-37.109375,-36.62109375,-52.734375,-26.85546875
124.515625,-37.59765625,-36.1328125,-48.828125,0.48828125
124.51953125,-23.4375,-33.69140625,-47.36328125,-25.390625
124.5234375,-51.26953125,-27.34375,-45.8984375,-54.6875
124.52734375,-71.2890625,-29.78515625,-49.31640625,-55.6640625
124.53125,-26.85546875,-35.15625,-44.921875,-40.52734375
124.53515625,-53.22265625,-35.15625,-40.52734375,-49.31640625
124.5390625,-73.73046875,-35.15625,-46.38671875,-67.87109375
124.54296875,-42.48046875,-33.69140625,-43.45703125,-21.484375
124.546875,-39.55078125,-31.25,-41.9921875,-14.16015625
124.55078125,-30.2734375,-26.85546875,-46.38671875,-51.26953125
124.5546875,-30.76171875,-21.484375,-47.8515625,-45.41015625
124.55859375,-79.58984375,-31.25,-47.8515625,-27.34375
124.5625,-49.8046875,-32.2265625,-47.36328125,-27.83203125
124.56640625,-19.04296875,-23.92578125,-50.29296875,-41.015625
124.5703125,-44.43359375,-26.3671875,-50.29296875,-51.7578125
124.57421875,-56.15234375,-33.69140625,-50.78125,-52.734375
124.578125,-53.22265625,-38.57421875,-48.828125,-49.8046875
124.58203125,-39.0625,-43.9453125,-46.38671875,-37.109375
124.5859375,-20.5078125,-42.96875,-46.875,-30.2734375
124.58984375,-66.40625,-35.64453125,-48.33984375,-22.4609375
124.59375,-77.1484375,-37.109375,-49.31640625,-2.44140625
124.59765625,-62.5,-39.0625,-49.8046875,-28.3203125
124.6015625,-52.24609375,-35.15625,-48.828125,-35.15625
124.60546875,-45.8984375,-36.62109375,-45.41015625,-61.03515625
124.609375,-30.76171875,-39.0625,-43.45703125,-60.546875
124.61328125,-17.578125,-33.203125,-41.9921875,-42.96875
124.6171875,-25.390625,-33.69140625,-42.96875,-41.9921875
124.62109375,-10.7421875,-38.57421875,-37.59765625,-26.85546875
124.625,-32.2265625,-33.203125,-33.203125,-19.53125
124.62890625,-62.5,-38.0859375,-38.0859375,-45.8984375
124.6328125,-53.22265625,-44.43359375,-42.96875,-62.98828125
124.63671875,-61.5234375,-37.59765625,-41.9921875,-62.5
124.640625,-55.17578125,-32.71484375,-41.9921875,-80.078125
124.64453125,-44.43359375,-39.55078125,-51.26953125,-48.828125
124.6484375,-40.52734375,-43.9453125,-53.22265625,-36.62109375
124.65234375,-15.625,-38.0859375,-43.9453125,-37.109375
124.65625,-42.96875,-33.203125,-37.59765625,-33.203125
124.66015625,-70.3125,-33.203125,-34.1796875,-70.80078125
124.6640625,-43.45703125,-30.76171875,-37.59765625,-89.35546875
124.66796875,-42.48046875,-24.90234375,-35.15625,-69.3359375
124.671875,-64.94140625,-27.34375,-33.69140625,-54.19921875
124.67578125,-64.94140625,-35.64453125,-37.59765625,-49.31640625
124.6796875,-45.8984375,-33.203125,-39.55078125,-59.5703125
124.68359375,-61.5234375,-29.296875,-41.50390625,-72.265625
124.6875,-73.2421875,-31.73828125,-40.52734375,-86.9140625
124.69140625,-99.609375,-36.62109375,-42.96875,-104.98046875
124.6953125,-93.75,-30.2734375,-39.0625,-91.30859375
124.69921875,-80.56640625,-22.94921875,-25.390625,-88.37890625
124.703125,-118.65234375,-24.90234375,-27.34375,-108.88671875
124.70703125,-135.7421875,-29.78515625,-31.73828125,-104.00390625
124.7109375,-150.87890625,-39.55078125,-33.69140625,-147.4609375
124.71484375,-171.38671875,-52.24609375,-44.43359375,-199.70703125
124.71875,-192.3828125,-56.640625,-52.734375,-188.96484375
124.72265625,-191.89453125,-57.12890625,-52.24609375,-177.24609375
124.7265625,-199.70703125,-60.05859375,-38.57421875,-224.609375
124.73046875,-203.61328125,-58.10546875,-35.15625,-207.51953125
124.734375,-208.49609375,-54.6875,-36.62109375,-212.40234375
124.73828125,-221.19140625,-54.6875,-35.64453125,-223.14453125
124.7421875,-199.21875,-47.8515625,-41.9921875,-197.75390625
124.74609375,-182.6171875,-40.52734375,-44.43359375,-179.6875
124.75,-165.0390625,-31.25,-38.57421875,-163.57421875
124.75390625,-160.15625,-26.3671875,-33.69140625,-164.0625
124.7578125,-174.31640625,-32.71484375,-40.52734375,-144.53125
124.76171875,-165.52734375,-45.41015625,-52.734375,-118.1640625
124.765625,-139.6484375,-51.7578125,-65.91796875,-143.5546875
124.76953125,-115.72265625,-47.36328125,-70.80078125,-157.71484375
124.7734375,-107.91015625,-37.59765625,-63.96484375,-127.9296875
124.77734375,-111.328125,-36.1328125,-55.6640625,-109.375
124.78125,-76.66015625,-33.69140625,-43.9453125,-88.8671875
124.78515625,-62.98828125,-27.83203125,-42.96875,-67.87109375
124.7890625,-53.7109375,-28.3203125,-51.26953125,-62.5
124.79296875,-34.1796875,-37.109375,-49.31640625,-54.6875
124.796875,-34.1796875,-40.0390625,-47.8515625,-45.41015625
124.80078125,-33.69140625,-38.0859375,-56.15234375,-42.96875
124.8046875,-20.01953125,-39.0625,-52.734375,-22.94921875
124.80859375,-3.90625,-45.41015625,-54.19921875,2.44140625
124.8125,1.46484375,-45.8984375,-60.05859375,-21.97265625
124.81640625,-2.9296875,-40.52734375,-55.17578125,-20.5078125
124.8203125,-12.6953125,-46.875,-54.19921875,-26.3671875
124.82421875,23.4375,-50.29296875,-52.24609375,4.39453125
124.828125,11.71875,-48.828125,-55.17578125,-15.13671875
124.83203125,-31.73828125,-45.41015625,-55.6640625,-39.0625
124.8359375,-10.7421875,-45.41015625,-46.38671875,-16.6015625
124.83984375,6.8359375,-54.6875,-49.31640625,20.99609375
124.84375,5.859375,-57.6171875,-53.22265625,10.7421875
124.84765625,0.9765625,-53.22265625,-55.17578125,-25.87890625
124.8515625,-15.625,-52.734375,-55.6640625,-25.390625
124.85546875,6.8359375,-52.24609375,-60.05859375,-24.4140625
124.859375,40.52734375,-48.828125,-54.19921875,-7.8125
124.86328125,13.671875,-48.33984375,-46.875,11.71875
124.8671875,7.32421875,-49.31640625,-53.22265625,12.6953125
124.87109375,10.25390625,-47.8515625,-51.7578125,-9.27734375
124.875,-4.8828125,-43.9453125,-42.96875,-13.671875
124.87890625,10.25390625,-48.828125,-43.45703125,37.109375
124.8828125,-5.37109375,-49.31640625,-43.9453125,29.296875
124.88671875,-33.203125,-46.38671875,-46.875,-25.390625
124.890625,-18.06640625,-50.29296875,-50.78125,-31.25
124.89453125,0.0,-49.8046875,-49.31640625,-23.92578125
124.8984375,0.48828125,-50.29296875,-51.26953125,-21.484375
124.90234375,-9.27734375,-55.17578125,-51.7578125,-31.25
124.90625,-18.5546875,-53.22265625,-48.828125,-35.15625
124.91015625,-16.11328125,-53.22265625,-46.875,-33.69140625
124.9140625,-20.99609375,-54.6875,-44.921875,-20.01953125
124.91796875,-40.52734375,-56.15234375,-49.31640625,-10.7421875
124.921875,-25.87890625,-56.640625,-50.78125,-30.76171875
124.92578125,-19.53125,-50.29296875,-48.33984375,-24.90234375
124.9296875,-25.390625,-49.8046875,-52.24609375,1.46484375
124.93359375,-16.6015625,-59.08203125,-59.08203125,-9.27734375
124.9375,-14.6484375,-55.17578125,-58.10546875,-21.97265625
124.94140625,3.90625,-49.8046875,-55.6640625,-17.578125
124.9453125,-21.97265625,-55.17578125,-59.5703125,-32.2265625
124.94921875,-35.15625,-52.734375,-60.546875,-35.64453125
124.953125,-14.16015625,-42.96875,-48.828125,-35.15625
124.95703125,-28.3203125,-36.1328125,-34.1796875,-31.25
124.9609375,0.48828125,-33.203125,-38.57421875,0.48828125
124.96484375,5.37109375,-37.59765625,-50.29296875,23.92578125
124.96875,-10.7421875,-41.9921875,-46.38671875,-3.41796875
124.97265625,10.7421875,-43.45703125,-50.29296875,-24.4140625
124.9765625,3.41796875,-44.43359375,-61.03515625,-39.0625
124.98046875,-16.6015625,-45.41015625,-63.4765625,-29.78515625
124.984375,-7.32421875,-47.36328125,-56.640625,-19.04296875
124.98828125,-2.44140625,-46.875,-48.33984375,-23.92578125
124.9921875,-11.71875,-48.828125,-50.78125,-33.203125
124.99609375,-28.3203125,-50.78125,-59.5703125,-39.55078125
125.0,-20.99609375,-44.43359375,-60.05859375,-18.5546875
125.00390625,11.71875,-42.48046875,-49.31640625,-9.27734375
125.0078125,-9.27734375,-49.8046875,-51.26953125,1.46484375
125.01171875,-21.484375,-59.5703125,-59.5703125,-34.1796875
125.015625,-24.4140625,-55.6640625,-54.6875,-49.8046875
125.01953125,-41.015625,-54.6875,-44.921875,-44.921875
125.0234375,-62.5,-59.08203125,-41.015625,-63.4765625
125.02734375,-41.015625,-52.734375,-42.96875,-38.0859375
125.03125,-16.6015625,-43.9453125,-38.57421875,-0.48828125
125.03515625,-21.97265625,-36.62109375,-33.69140625,-25.390625
125.0390625,-7.8125,-37.59765625,-33.69140625,-27.34375
125.04296875,-2.9296875,-40.0390625,-32.2265625,-7.8125
125.046875,3.41796875,-34.66796875,-32.71484375,-14.6484375
125.05078125,-3.90625,-33.203125,-34.66796875,10.7421875
125.0546875,-35.64453125,-34.66796875,-29.78515625,28.80859375
125.05859375,-19.53125,-32.2265625,-26.3671875,-35.64453125
125.0625,-4.39453125,-28.80859375,-27.83203125,-58.59375
125.06640625,-17.08984375,-30.76171875,-33.203125,-36.62109375
125.0703125,0.48828125,-32.71484375,-37.59765625,-36.1328125
125.07421875,-23.92578125,-31.73828125,-34.1796875,-23.4375
125.078125,-41.015625,-29.78515625,-29.296875,-8.7890625
125.08203125,-23.4375,-26.85546875,-26.85546875,-34.66796875
125.0859375,-17.08984375,-30.76171875,-31.25,-38.57421875
125.08984375,-25.390625,-38.57421875,-34.66796875,-40.52734375
125.09375,-32.2265625,-34.1796875,-30.76171875,-32.71484375
125.09765625,-19.53125,-31.73828125,-31.25,-26.85546875
125.1015625,-3.41796875,-34.66796875,-34.1796875,0.48828125
125.10546875,-17.08984375,-34.66796875,-31.25,7.8125
125.109375,-26.3671875,-38.57421875,-29.78515625,-47.36328125
125.11328125,-17.08984375,-39.0625,-25.390625,-45.41015625
125.1171875,-8.30078125,-34.1796875,-22.94921875,-20.01953125
125.12109375,-15.625,-38.57421875,-31.25,-32.2265625
125.125,-28.80859375,-45.8984375,-38.0859375,-49.8046875
125.12890625,-35.64453125,-43.45703125,-36.1328125,-46.38671875
125.1328125,-26.85546875,-42.48046875,-37.59765625,-35.64453125
125.13671875,-19.53125,-44.43359375,-39.55078125,-48.33984375
125.140625,-20.01953125,-44.43359375,-40.52734375,-41.015625
125.14453125,-17.578125,-38.57421875,-40.52734375,9.27734375
125.1484375,-29.78515625,-38.57421875,-46.38671875,-11.23046875
125.15234375,-3.41796875,-33.203125,-44.921875,-45.41015625
125.15625,23.92578125,-31.25,-36.1328125,-30.76171875
125.16015625,-32.71484375,-38.0859375,-38.57421875,-40.0390625
125.1640625,-68.359375,-42.48046875,-42.48046875,-33.203125
125.16796875,-51.26953125,-49.8046875,-41.9921875,-29.296875
125.171875,-36.1328125,-53.22265625,-39.55078125,-52.24609375
125.17578125,-30.2734375,-49.31640625,-35.64453125,-61.03515625
125.1796875,-36.62109375,-44.921875,-35.15625,-48.828125
125.18359375,-76.171875,-41.9921875,-37.109375,-47.8515625
125.1875,-66.40625,-40.0390625,-36.1328125,-42.48046875
125.19140625,-26.85546875,-37.59765625,-39.55078125,-16.6015625
125.1953125,-27.34375,-36.1328125,-36.62109375,-11.23046875
125.19921875,-28.80859375,-37.59765625,-32.71484375,-35.64453125
125.203125,-22.4609375,-36.62109375,-38.0859375,-85.44921875
125.20703125,-39.55078125,-33.69140625,-40.52734375,-61.03515625
125.2109375,-39.0625,-28.3203125,-32.2265625,18.06640625
125.21484375,-5.859375,-30.2734375,-33.69140625,29.296875
125.21875,-5.859375,-31.25,-35.15625,-39.0625
125.22265625,-41.015625,-26.85546875,-36.1328125,-32.71484375
125.2265625,-46.38671875,-32.71484375,-32.71484375,7.8125
125.23046875,14.6484375,-29.78515625,-31.25,-25.87890625
125.234375,-0.48828125,-20.99609375,-30.76171875,-21.97265625
125.23828125,-32.71484375,-26.85546875,-29.78515625,9.765625
125.2421875,-20.5078125,-27.83203125,-25.87890625,-11.23046875
125.24609375,-15.625,-27.83203125,-26.3671875,-27.34375
125.25,-18.06640625,-26.3671875,-32.2265625,-29.296875
125.25390625,-29.296875,-26.85546875,-40.0390625,-23.4375
125.2578125,-23.4375,-26.3671875,-47.8515625,-1.46484375
125.26171875,-54.6875,-31.73828125,-50.29296875,-25.390625
125.265625,-39.0625,-37.109375,-48.33984375,-48.33984375
125.26953125,-17.578125,-38.57421875,-49.31640625,-40.52734375
125.2734375,-64.94140625,-36.1328125,-49.31640625,-41.015625
125.27734375,-46.38671875,-35.15625,-39.0625,-36.62109375
125.28125,-5.37109375,-37.109375,-37.59765625,-18.06640625
125.28515625,-4.8828125,-37.109375,-44.43359375,-13.18359375
125.2890625,-29.78515625,-34.1796875,-46.875,-33.203125
125.29296875,-44.921875,-32.2265625,-44.43359375,-17.08984375
125.296875,-30.2734375,-37.109375,-42.96875,32.71484375
125.30078125,-15.625,-42.48046875,-45.8984375,-41.9921875
125.3046875,-28.80859375,-41.015625,-45.8984375,-74.21875
125.30859375,-27.34375,-39.0625,-41.015625,-28.80859375
125.3125,-32.71484375,-31.73828125,-33.69140625,-36.62109375
125.31640625,-33.69140625,-32.2265625,-34.1796875,-25.390625
125.3203125,-24.4140625,-37.109375,-34.1796875,-30.2734375
125.32421875,-24.90234375,-29.78515625,-25.390625,-35.15625
125.328125,-24.90234375,-28.80859375,-20.99609375,12.20703125
125.33203125,-20.5078125,-39.55078125,-25.390625,-5.37109375
125.3359375,-39.55078125,-35.64453125,-29.296875,-46.38671875
125.33984375,-29.78515625,-38.0859375,-36.1328125,-51.26953125
125.34375,-4.39453125,-42.96875,-39.55078125,-19.04296875
125.34765625,-0.9765625,-41.9921875,-33.69140625,-24.4140625
125.3515625,-36.1328125,-41.50390625,-31.73828125,-62.98828125
125.35546875,-48.33984375,-41.50390625,-35.15625,-56.640625
125.359375,-14.6484375,-40.52734375,-34.1796875,-24.4140625
125.36328125,-26.85546875,-41.9921875,-32.2265625,14.6484375
125.3671875,-49.8046875,-43.9453125,-32.71484375,-13.671875
125.37109375,-37.109375,-47.36328125,-34.1796875,-41.015625
125.375,-38.0859375,-48.828125,-30.2734375,-27.83203125
125.37890625,-38.57421875,-42.48046875,-29.296875,-55.17578125
125.3828125,-28.80859375,-44.43359375,-39.0625,-65.4296875
125.38671875,-30.76171875,-50.29296875,-35.64453125,10.7421875
125.390625,-37.59765625,-50.29296875,-30.76171875,-29.296875
125.39453125,-34.1796875,-51.26953125,-38.57421875,-82.03125
125.3984375,-46.38671875,-51.7578125,-43.45703125,-39.55078125
125.40234375,-44.921875,-53.7109375,-45.41015625,-42.96875
125.40625,-35.64453125,-53.7109375,-47.36328125,-28.3203125
125.41015625,-41.50390625,-54.6875,-44.921875,-48.828125
125.4140625,-31.25,-58.10546875,-41.50390625,-25.390625
125.41796875,-30.76171875,-49.31640625,-40.52734375,-22.4609375
125.421875,-29.78515625,-41.015625,-34.1796875,-74.70703125
125.42578125,-32.2265625,-41.015625,-33.69140625,-39.0625
125.4296875,-50.78125,-37.59765625,-29.296875,-0.48828125
125.43359375,-37.109375,-38.0859375,-25.390625,-45.41015625
125.4375,-27.34375,-38.57421875,-27.83203125,-62.5
125.44140625,-20.5078125,-38.57421875,-28.3203125,-27.83203125
125.4453125,-22.94921875,-43.45703125,-34.66796875,-8.30078125
125.44921875,-26.85546875,-46.875,-38.57421875,-10.7421875
125.453125,-33.203125,-38.57421875,-35.64453125,-61.03515625
125.45703125,-20.01953125,-33.203125,-37.59765625,-59.5703125
125.4609375,1.953125,-38.57421875,-32.2265625,21.484375
125.46484375,-31.25,-42.96875,-30.76171875,-4.39453125
125.46875,-56.15234375,-44.43359375,-35.64453125,-69.3359375
125.47265625,-27.83203125,-43.45703125,-35.15625,-59.08203125
125.4765625,-9.765625,-37.109375,-37.59765625,-19.53125
125.48046875,-7.8125,-37.59765625,-35.15625,-12.6953125
125.484375,-34.1796875,-37.109375,-34.66796875,-31.73828125
125.48828125,-50.78125,-38.0859375,-35.15625,-24.90234375
125.4921875,-38.0859375,-41.9921875,-34.66796875,-37.59765625
125.49609375,-19.04296875,-42.48046875,-36.62109375,-37.59765625
125.5,-7.32421875,-42.96875,-41.50390625,-20.5078125
125.50390625,-46.875,-42.48046875,-41.9921875,-16.11328125
125.5078125,-46.38671875,-38.0859375,-40.52734375,-24.90234375
125.51171875,-31.73828125,-41.50390625,-41.9921875,-55.17578125
125.515625,-53.22265625,-42.96875,-47.36328125,-85.44921875
125.51953125,-35.15625,-46.875,-52.24609375,-53.22265625
125.5234375,-26.3671875,-49.8046875,-51.26953125,-29.296875
125.52734375,-37.109375,-41.50390625,-41.50390625,-29.296875
125.53125,-19.53125,-38.0859375,-28.80859375,-26.85546875
125.53515625,-11.71875,-35.64453125,-31.73828125,-38.57421875
125.5390625,-14.16015625,-30.2734375,-33.203125,-32.71484375
125.54296875,-26.85546875,-28.3203125,-31.25,-6.34765625
125.546875,-21.484375,-28.3203125,-34.66796875,-9.27734375
125.55078125,14.6484375,-23.92578125,-30.76171875,-21.484375
125.5546875,-2.9296875,-23.4375,-21.484375,16.6015625
125.55859375,-7.8125,-22.94921875,-17.578125,12.20703125
125.5625,3.90625,-19.04296875,-20.99609375,-26.85546875
125.56640625,-10.25390625,-25.390625,-20.01953125,-18.5546875
125.5703125,-11.23046875,-34.1796875,-26.3671875,-28.3203125
125.57421875,-25.390625,-36.62109375,-35.64453125,-34.1796875
125.578125,-35.64453125,-38.0859375,-32.71484375,0.9765625
125.58203125,-13.18359375,-34.66796875,-36.62109375,-27.34375
125.5859375,-30.2734375,-38.0859375,-43.45703125,-62.01171875
125.58984375,-47.8515625,-49.8046875,-46.38671875,-35.64453125
125.59375,-38.0859375,-45.8984375,-51.26953125,-10.7421875
125.59765625,-42.96875,-41.9921875,-50.29296875,-31.25
125.6015625,-28.3203125,-45.41015625,-47.36328125,-64.453125
125.60546875,-6.34765625,-42.96875,-51.7578125,-49.8046875
125.609375,-13.18359375,-44.43359375,-57.12890625,-32.71484375
125.61328125,-10.7421875,-53.22265625,-60.05859375,-23.4375
125.6171875,-20.5078125,-55.6640625,-64.453125,-17.578125
125.62109375,-33.203125,-54.6875,-63.4765625,-35.15625
125.625,-10.25390625,-47.36328125,-45.41015625,-36.62109375
125.62890625,-0.48828125,-38.57421875,-39.0625,-18.5546875
125.6328125,-33.69140625,-33.69140625,-48.828125,-68.84765625
125.63671875,-50.29296875,-34.1796875,-40.0390625,-68.359375
125.640625,-29.296875,-31.73828125,-39.55078125,-37.109375
125.64453125,-35.64453125,-27.34375,-48.828125,-62.01171875
125.6484375,-53.7109375,-29.78515625,-54.19921875,-55.17578125
125.65234375,-41.50390625,-31.25,-59.5703125,-72.265625
125.65625,-45.41015625,-27.83203125,-52.24609375,-78.125
125.66015625,-34.1796875,-22.94921875,-43.45703125,-49.31640625
125.6640625,-17.578125,-23.4375,-43.45703125,-47.8515625
125.66796875,-31.25,-30.76171875,-49.8046875,-78.61328125
125.671875,-23.4375,-32.71484375,-53.7109375,-93.26171875
125.67578125,-19.53125,-36.62109375,-56.15234375,-82.03125
125.6796875,-44.43359375,-39.55078125,-61.03515625,-72.75390625
125.68359375,-43.45703125,-39.55078125,-58.59375,-77.1484375
125.6875,-51.7578125,-36.62109375,-52.734375,-71.77734375
125.69140625,-72.265625,-32.71484375,-55.6640625,-57.6171875
125.6953125,-45.41015625,-34.66796875,-56.640625,-57.6171875
125.69921875,-27.34375,-36.1328125,-58.10546875,-65.91796875
125.703125,-40.52734375,-34.1796875,-59.5703125,-76.66015625
125.70703125,-32.2265625,-28.3203125,-52.24609375,-68.84765625
125.7109375,-37.109375,-26.3671875,-41.50390625,-62.01171875
125.71484375,-11.23046875,-22.94921875,-34.66796875,-49.8046875
125.71875,-2.44140625,-20.5078125,-36.1328125,-47.8515625
125.72265625,-36.62109375,-18.5546875,-30.76171875,-58.59375
125.7265625,-29.296875,-11.23046875,-18.06640625,-32.2265625
125.73046875,-24.4140625,-8.30078125,-19.53125,14.16015625
125.734375,-1.46484375,-9.27734375,-24.4140625,-17.578125
125.73828125,-26.3671875,-12.6953125,-24.4140625,-54.6875
125.7421875,-55.17578125,-15.13671875,-31.25,-30.76171875
125.74609375,-22.94921875,-17.578125,-32.71484375,-32.71484375
125.75,-16.11328125,-23.92578125,-30.76171875,-34.66796875
125.75390625,-20.5078125,-21.97265625,-25.87890625,-60.546875
125.7578125,-16.6015625,-18.5546875,-18.5546875,-26.3671875
125.76171875,-13.18359375,-20.99609375,-20.5078125,-3.41796875
125.765625,-10.25390625,-23.92578125,-21.484375,-30.76171875
125.76953125,-12.6953125,-29.296875,-24.90234375,-26.85546875
125.7734375,-19.04296875,-33.69140625,-37.109375,-48.828125
125.77734375,-45.41015625,-37.59765625,-47.36328125,-55.6640625
125.78125,-40.52734375,-41.9921875,-46.875,-10.7421875
125.78515625,-36.62109375,-36.62109375,-39.55078125,-63.96484375
125.7890625,-41.50390625,-31.73828125,-33.69140625,-82.03125
125.79296875,-27.83203125,-31.73828125,-41.50390625,-45.8984375
125.796875,-13.671875,-25.87890625,-39.55078125,-52.24609375
125.80078125,-37.109375,-26.85546875,-34.66796875,-46.38671875
125.8046875,-28.80859375,-33.69140625,-42.48046875,-33.69140625
125.80859375,-14.16015625,-34.1796875,-50.29296875,-51.26953125
125.8125,-16.6015625,-30.76171875,-44.921875,-25.87890625
125.81640625,-34.1796875,-31.73828125,-41.015625,-4.8828125
125.8203125,-67.87109375,-34.1796875,-44.43359375,-83.49609375
125.82421875,-17.08984375,-32.71484375,-36.62109375,-61.03515625
125.828125,-20.5078125,-31.25,-29.296875,-39.55078125
125.83203125,-47.8515625,-34.1796875,-34.1796875,-37.59765625
125.8359375,-15.625,-36.1328125,-34.1796875,-18.5546875
125.83984375,-41.015625,-37.109375,-27.34375,-16.6015625
125.84375,-42.96875,-37.109375,-29.296875,-42.96875
125.84765625,-35.64453125,-37.109375,-34.66796875,-42.96875
125.8515625,-51.7578125,-39.55078125,-43.9453125,-39.0625
125.85546875,-48.828125,-41.9921875,-55.17578125,-28.80859375
125.859375,-57.12890625,-45.41015625,-45.8984375,-0.48828125
125.86328125,-62.5,-46.875,-42.48046875,-60.546875
125.8671875,-63.4765625,-49.31640625,-50.29296875,-90.8203125
125.87109375,-60.546875,-57.12890625,-51.7578125,-55.6640625
125.875,-39.55078125,-50.29296875,-52.734375,-30.2734375
125.87890625,-46.38671875,-47.36328125,-49.8046875,-37.59765625
125.8828125,-57.12890625,-57.12890625,-55.17578125,-68.84765625
125.88671875,-33.69140625,-56.640625,-54.19921875,-55.17578125
125.890625,-38.57421875,-56.15234375,-51.26953125,-62.01171875
125.89453125,-62.5,-54.19921875,-55.6640625,-49.8046875
125.8984375,-69.3359375,-48.33984375,-50.78125,-48.33984375
125.90234375,-78.125,-45.41015625,-49.8046875,-75.1953125
125.90625,-22.4609375,-38.57421875,-48.33984375,-33.203125
125.91015625,0.48828125,-37.109375,-37.109375,-3.90625
125.9140625,-56.15234375,-43.9453125,-29.78515625,-38.57421875
125.91796875,-75.1953125,-40.52734375,-32.71484375,-59.08203125
125.921875,-49.8046875,-40.52734375,-41.015625,-48.828125
125.92578125,-59.5703125,-48.33984375,-39.0625,-46.38671875
125.9296875,-65.4296875,-55.17578125,-45.8984375,-49.8046875
125.93359375,-53.7109375,-54.6875,-50.29296875,-41.50390625
125.9375,-49.8046875,-49.31640625,-46.875,-43.45703125
125.94140625,-48.33984375,-53.22265625,-47.36328125,-41.9921875
125.9453125,-65.4296875,-55.6640625,-49.31640625,-34.66796875
125.94921875,-42.48046875,-48.828125,-54.6875,-36.62109375
125.953125,-15.625,-46.875,-54.6875,-28.3203125
125.95703125,-26.85546875,-48.828125,-48.828125,-35.64453125
125.9609375,-44.921875,-49.31640625,-49.31640625,-39.55078125
125.96484375,-57.12890625,-50.29296875,-56.15234375,-39.0625
125.96875,-40.0390625,-50.29296875,-53.22265625,-32.71484375
125.97265625,-14.6484375,-51.7578125,-55.6640625,-35.64453125
125.9765625,-41.9921875,-51.7578125,-65.91796875,-41.9921875
125.98046875,-53.7109375,-52.734375,-63.4765625,-38.57421875
125.984375,-46.875,-58.59375,-58.10546875,-32.2265625
125.98828125,-66.89453125,-61.5234375,-58.10546875,-35.64453125
125.9921875,-56.640625,-51.26953125,-55.17578125,-79.58984375
125.99609375,-30.76171875,-43.9453125,-49.31640625,-41.015625
126.0,-42.96875,-47.8515625,-50.78125,-26.85546875
126.00390625,-65.4296875,-50.29296875,-52.24609375,-60.05859375
126.0078125,-41.9921875,-47.8515625,-46.38671875,-40.52734375
126.01171875,-38.57421875,-49.31640625,-43.9453125,-21.97265625
126.015625,-34.66796875,-49.31640625,-44.43359375,-49.8046875
126.01953125,-15.13671875,-43.45703125,-45.41015625,-72.265625
126.0234375,-47.36328125,-43.9453125,-43.9453125,-30.2734375
126.02734375,-29.296875,-46.38671875,-41.9921875,-13.18359375
126.03125,-14.16015625,-45.41015625,-44.43359375,4.39453125
126.03515625,-49.8046875,-46.38671875,-43.9453125,-19.53125
126.0390625,-51.26953125,-47.8515625,-51.26953125,-68.359375
126.04296875,-29.296875,-42.96875,-48.828125,-48.33984375
126.046875,-33.69140625,-36.1328125,-36.62109375,-13.671875
126.05078125,-30.2734375,-30.76171875,-29.296875,-23.4375
126.0546875,-4.39453125,-26.85546875,-30.2734375,-37.59765625
126.05859375,0.48828125,-26.3671875,-33.69140625,19.53125
126.0625,-44.43359375,-28.3203125,-31.25,10.25390625
126.06640625,-15.13671875,-33.69140625,-32.2265625,-42.96875
126.0703125,-2.44140625,-46.875,-43.45703125,-72.265625
126.07421875,-2.44140625,-50.29296875,-46.38671875,-33.203125
126.078125,-16.6015625,-49.31640625,-43.9453125,9.27734375
126.08203125,-40.52734375,-44.921875,-41.9921875,-39.0625
126.0859375,-40.0390625,-34.66796875,-39.55078125,-51.26953125
126.08984375,-20.01953125,-34.1796875,-39.55078125,-40.52734375
126.09375,-26.3671875,-33.69140625,-34.66796875,-30.2734375
126.09765625,-43.9453125,-33.203125,-37.59765625,-34.66796875
126.1015625,-44.43359375,-38.57421875,-41.015625,-28.3203125
126.10546875,-28.80859375,-39.55078125,-42.48046875,-40.52734375
126.109375,-41.015625,-37.59765625,-47.8515625,-46.38671875
126.11328125,-49.31640625,-38.57421875,-46.875,-26.85546875
126.1171875,-28.80859375,-38.57421875,-48.828125,-49.8046875
126.12109375,-40.0390625,-35.64453125,-43.45703125,-61.5234375
126.125,-20.01953125,-40.0390625,-38.57421875,-32.71484375
126.12890625,-27.83203125,-43.9453125,-43.45703125,-17.578125
126.1328125,-28.3203125,-37.109375,-30.76171875,-23.4375
126.13671875,-27.34375,-34.66796875,-28.80859375,-38.57421875
126.140625,-41.9921875,-32.2265625,-32.2265625,-32.2265625
126.14453125,-14.16015625,-27.34375,-21.484375,-24.4140625
126.1484375,-16.11328125,-30.76171875,-24.90234375,-32.71484375
126.15234375,-33.69140625,-40.0390625,-32.71484375,-39.0625
126.15625,-54.6875,-42.96875,-37.109375,-49.31640625
126.16015625,-20.99609375,-35.64453125,-37.109375,-41.015625
126.1640625,-12.20703125,-34.66796875,-26.85546875,12.20703125
126.16796875,-26.3671875,-32.2265625,-22.4609375,-7.32421875
126.171875,-27.34375,-30.2734375,-20.5078125,-42.96875
126.17578125,-34.1796875,-33.69140625,-23.92578125,-37.59765625
126.1796875,-26.85546875,-31.73828125,-24.4140625,-31.25
126.18359375,-23.92578125,-35.64453125,-17.578125,-20.01953125
126.1875,-14.6484375,-41.015625,-16.6015625,-38.57421875
126.19140625,-35.64453125,-38.0859375,-20.01953125,-66.40625
126.1953125,-32.2265625,-34.1796875,-22.94921875,-20.01953125
126.19921875,-14.6484375,-30.2734375,-19.04296875,31.25
126.203125,-16.11328125,-26.85546875,-15.625,-19.04296875
126.20703125,-11.23046875,-21.484375,-10.7421875,-43.45703125
126.2109375,-14.16015625,-25.390625,-9.27734375,-42.48046875
126.21484375,-9.27734375,-27.34375,-21.97265625,-29.296875
126.21875,12.20703125,-26.3671875,-20.5078125,5.859375
126.22265625,5.859375,-28.80859375,-21.484375,-1.953125
126.2265625,-14.16015625,-25.87890625,-27.34375,-18.5546875
126.23046875,-14.16015625,-22.94921875,-28.80859375,-26.3671875
126.234375,-28.3203125,-25.390625,-31.25,-28.80859375
126.23828125,-7.8125,-23.4375,-24.4140625,0.0
126.2421875,8.30078125,-21.97265625,-20.01953125,3.41796875
126.24609375,-8.7890625,-14.16015625,-20.99609375,-18.06640625
126.25,-10.7421875,-11.71875,-24.4140625,-3.90625
126.25390625,5.859375,-13.671875,-21.97265625,8.30078125
126.2578125,-3.41796875,-11.71875,-17.578125,-36.1328125
126.26171875,-3.41796875,-10.7421875,-18.5546875,-25.87890625
126.265625,18.06640625,-6.8359375,-19.04296875,20.01953125
126.26953125,28.80859375,-7.32421875,-20.99609375,0.0
126.2734375,4.8828125,-20.5078125,-31.25,-20.5078125
126.27734375,-19.53125,-27.83203125,-34.1796875,-0.48828125
126.28125,-18.06640625,-25.390625,-29.296875,15.13671875
126.28515625,-20.01953125,-23.92578125,-32.2265625,-39.0625
126.2890625,-22.4609375,-27.34375,-43.45703125,-56.640625
126.29296875,-25.390625,-32.2265625,-42.96875,-14.16015625
126.296875,-41.015625,-31.25,-40.0390625,-15.625
126.30078125,-42.96875,-25.87890625,-39.55078125,-26.3671875
126.3046875,-18.5546875,-27.83203125,-34.1796875,-47.8515625
126.30859375,-13.18359375,-22.4609375,-28.3203125,-59.5703125
126.3125,-7.32421875,-15.13671875,-26.3671875,-36.1328125
126.31640625,-12.6953125,-21.97265625,-30.2734375,-26.85546875
126.3203125,-10.25390625,-28.80859375,-34.1796875,-21.97265625
126.32421875,-3.41796875,-26.85546875,-33.69140625,-7.8125
126.328125,-14.6484375,-17.08984375,-29.78515625,-16.11328125
126.33203125,-32.2265625,-13.18359375,-23.92578125,-30.76171875
126.3359375,-48.828125,-12.6953125,-20.01953125,-29.296875
126.33984375,-16.11328125,-10.25390625,-31.73828125,-11.71875
126.34375,17.578125,-8.30078125,-34.1796875,8.7890625
126.34765625,5.859375,-10.25390625,-29.78515625,-14.16015625
126.3515625,-14.6484375,-19.53125,-28.3203125,-45.8984375
126.35546875,-11.71875,-20.01953125,-27.34375,-43.9453125
126.359375,2.44140625,-15.625,-21.484375,-32.71484375
126.36328125,19.04296875,-15.625,-23.4375,-8.30078125
126.3671875,-3.41796875,-18.06640625,-27.34375,-30.76171875
126.37109375,-14.6484375,-20.99609375,-30.76171875,-37.109375
126.375,2.44140625,-21.484375,-41.50390625,-1.46484375
126.37890625,10.7421875,-21.97265625,-47.8515625,14.16015625
126.3828125,26.3671875,-26.85546875,-44.43359375,-16.11328125
126.38671875,-25.87890625,-32.71484375,-40.0390625,-70.3125
126.390625,-54.19921875,-31.73828125,-48.33984375,-65.4296875
126.39453125,-27.83203125,-27.34375,-48.33984375,-27.34375
126.3984375,-66.40625,-32.71484375,-37.59765625,-67.3828125
126.40234375,-61.03515625,-44.921875,-37.109375,-97.65625
126.40625,-42.96875,-45.41015625,-40.0390625,-42.96875
126.41015625,-58.10546875,-39.0625,-39.0625,-41.9921875
126.4140625,-57.12890625,-35.64453125,-37.109375,-53.22265625
126.41796875,-41.015625,-30.76171875,-40.0390625,-33.69140625
126.421875,-39.0625,-28.80859375,-42.96875,-15.13671875
126.42578125,-26.3671875,-35.15625,-46.38671875,-44.921875
126.4296875,-29.296875,-39.0625,-50.29296875,-88.37890625
126.43359375,-57.12890625,-36.1328125,-43.45703125,-64.453125
126.4375,-35.15625,-32.2265625,-42.96875,-28.80859375
126.44140625,-15.13671875,-34.1796875,-50.78125,-17.08984375
126.4453125,-36.1328125,-36.1328125,-53.22265625,-51.7578125
126.44921875,-49.8046875,-32.71484375,-44.43359375,-72.75390625
126.453125,-53.22265625,-31.25,-41.50390625,-58.10546875
126.45703125,-37.109375,-29.296875,-46.38671875,-52.734375
126.4609375,-25.87890625,-24.90234375,-36.62109375,-45.8984375
126.46484375,-27.83203125,-29.78515625,-39.0625,-37.109375
126.46875,-67.3828125,-32.71484375,-53.7109375,-63.4765625
126.47265625,-53.22265625,-25.390625,-46.38671875,-59.5703125
126.4765625,-1.953125,-17.08984375,-38.57421875,-9.765625
126.48046875,-16.11328125,-20.5078125,-36.1328125,-1.46484375
126.484375,-20.5078125,-24.90234375,-36.1328125,-28.80859375
126.48828125,-45.41015625,-30.76171875,-40.0390625,-52.734375
126.4921875,-58.59375,-36.1328125,-47.8515625,-32.2265625
126.49609375,-23.92578125,-32.2265625,-43.9453125,1.46484375
126.5,-18.5546875,-28.3203125,-32.2265625,-13.18359375
126.50390625,-32.2265625,-26.85546875,-34.1796875,-48.33984375
126.5078125,-35.15625,-31.25,-40.52734375,-40.52734375
126.51171875,-40.0390625,-30.2734375,-40.0390625,-40.52734375
126.515625,-24.90234375,-27.83203125,-47.8515625,-24.90234375
126.51953125,-18.06640625,-24.90234375,-41.9921875,-1.46484375
126.5234375,-25.87890625,-16.6015625,-23.4375,-0.48828125
126.52734375,-11.23046875,-16.6015625,-18.06640625,-18.5546875
126.53125,-27.83203125,-21.484375,-26.85546875,-21.484375
126.53515625,-56.15234375,-21.484375,-33.69140625,-8.7890625
126.5390625,-31.25,-26.85546875,-32.71484375,-51.7578125
126.54296875,-15.13671875,-30.2734375,-30.76171875,-57.12890625
126.546875,-7.8125,-21.484375,-23.4375,-20.5078125
126.55078125,-28.3203125,-22.94921875,-24.4140625,-15.625
126.5546875,-41.50390625,-29.296875,-38.57421875,-55.6640625
126.55859375,-23.4375,-33.203125,-50.78125,-61.03515625
126.5625,-44.43359375,-31.73828125,-46.38671875,-40.52734375
126.56640625,-49.8046875,-27.34375,-39.55078125,-38.0859375
126.5703125,-32.2265625,-30.2734375,-45.41015625,-38.0859375
126.57421875,-41.015625,-37.109375,-54.6875,-58.10546875
126.578125,-69.3359375,-45.41015625,-58.59375,-72.75390625
126.58203125,-71.2890625,-47.36328125,-51.26953125,-56.640625
126.5859375,-39.55078125,-39.0625,-44.43359375,-74.21875
126.58984375,-66.89453125,-40.0390625,-46.875,-76.171875
126.59375,-63.96484375,-48.828125,-43.9453125,-22.94921875
126.59765625,-23.4375,-43.45703125,-30.76171875,-17.578125
126.6015625,-41.50390625,-35.64453125,-28.3203125,-53.22265625
126.60546875,-70.80078125,-33.69140625,-37.59765625,-66.40625
126.609375,-61.5234375,-41.9921875,-47.36328125,-52.24609375
126.61328125,-48.33984375,-49.31640625,-50.29296875,-14.6484375
126.6171875,-48.828125,-45.8984375,-47.8515625,-49.8046875
126.62109375,-76.66015625,-39.0625,-38.57421875,-66.40625
126.625,-57.6171875,-28.80859375,-25.87890625,-49.31640625
126.62890625,-40.52734375,-30.2734375,-26.3671875,-44.43359375
126.6328125,-52.24609375,-38.57421875,-26.3671875,-15.625
126.63671875,-45.41015625,-39.0625,-28.80859375,-59.5703125
126.640625,-43.45703125,-38.57421875,-35.15625,-82.03125
126.64453125,-52.24609375,-41.015625,-35.15625,-62.5
126.6484375,-62.5,-43.45703125,-36.62109375,-56.640625
126.65234375,-48.33984375,-40.0390625,-35.64453125,-63.96484375
126.65625,-27.34375,-36.62109375,-34.66796875,-55.17578125
126.66015625,-40.52734375,-38.0859375,-39.0625,-28.3203125
126.6640625,-40.0390625,-41.015625,-34.1796875,-3.90625
126.66796875,-48.828125,-47.8515625,-33.203125,-37.109375
126.671875,-51.7578125,-46.38671875,-39.55078125,-55.6640625
126.67578125,-48.828125,-40.52734375,-42.48046875,-77.1484375
126.6796875,-45.41015625,-41.50390625,-39.55078125,-92.28515625
126.68359375,-37.59765625,-38.57421875,-29.296875,-52.24609375
126.6875,-36.62109375,-34.66796875,-24.90234375,-44.43359375
126.69140625,-20.5078125,-40.0390625,-32.71484375,-41.9921875
126.6953125,-28.3203125,-34.1796875,-33.69140625,-19.53125
126.69921875,-39.55078125,-30.2734375,-30.76171875,-24.4140625
126.703125,-54.6875,-39.55078125,-37.59765625,-27.83203125
126.70703125,-41.50390625,-40.0390625,-44.921875,-36.62109375
126.7109375,-27.83203125,-41.50390625,-41.50390625,-58.59375
126.71484375,-32.71484375,-42.48046875,-33.69140625,-41.015625
126.71875,-26.3671875,-35.15625,-27.83203125,-37.59765625
126.72265625,-15.13671875,-26.85546875,-20.01953125,-61.03515625
126.7265625,-27.83203125,-26.85546875,-19.04296875,-59.08203125
126.73046875,-12.20703125,-31.25,-24.90234375,-30.76171875
126.734375,11.71875,-31.73828125,-31.25,-24.90234375
126.73828125,6.34765625,-22.4609375,-32.71484375,-45.8984375
126.7421875,-25.390625,-17.08984375,-33.203125,-56.640625
126.74609375,-23.92578125,-17.578125,-38.57421875,-81.0546875
126.75,-8.7890625,-19.53125,-38.0859375,-56.640625
126.75390625,-13.671875,-28.80859375,-43.45703125,-55.17578125
126.7578125,-34.1796875,-29.296875,-42.48046875,-81.54296875
126.76171875,-35.15625,-27.34375,-40.52734375,-65.4296875
126.765625,-25.390625,-22.94921875,-37.59765625,-29.296875
126.76953125,-23.4375,-19.04296875,-37.59765625,-33.203125
126.7734375,-9.765625,-20.01953125,-38.0859375,-61.5234375
126.77734375,-20.99609375,-21.484375,-33.203125,-44.43359375
126.78125,-31.73828125,-22.94921875,-32.2265625,-30.76171875
126.78515625,-7.8125,-21.97265625,-27.34375,-25.87890625
126.7890625,-5.37109375,-23.4375,-25.390625,-6.8359375
126.79296875,-1.953125,-25.87890625,-32.2265625,-27.83203125
126.796875,-24.4140625,-24.90234375,-39.55078125,-52.24609375
126.80078125,-33.203125,-27.83203125,-41.50390625,-61.03515625
126.8046875,-27.34375,-32.71484375,-40.52734375,-74.21875
126.80859375,-24.90234375,-35.15625,-43.45703125,-45.41015625
126.8125,-23.92578125,-35.64453125,-47.8515625,-39.0625
126.81640625,-31.73828125,-31.73828125,-48.828125,-59.5703125
126.8203125,-12.6953125,-25.87890625,-38.0859375,-55.17578125
126.82421875,-3.41796875,-23.4375,-22.4609375,-63.96484375
126.828125,-1.953125,-20.01953125,-27.83203125,-6.34765625
126.83203125,8.30078125,-25.87890625,-32.71484375,38.0859375
126.8359375,-12.6953125,-34.66796875,-32.71484375,-23.4375
126.83984375,-36.62109375,-30.2734375,-32.71484375,-57.12890625
126.84375,-7.32421875,-26.85546875,-21.97265625,-17.578125
126.84765625,-1.953125,-28.3203125,-21.484375,-19.04296875
126.8515625,-9.765625,-23.92578125,-24.4140625,-64.453125
126.85546875,-9.765625,-22.94921875,-18.06640625,-66.89453125
126.859375,-7.32421875,-24.4140625,-17.578125,-6.34765625
126.86328125,-7.8125,-28.80859375,-20.01953125,2.9296875
126.8671875,-8.7890625,-31.25,-15.625,-8.7890625
126.87109375,-12.6953125,-25.87890625,-17.578125,11.23046875
126.875,-45.41015625,-25.87890625,-20.01953125,-40.52734375
126.87890625,-25.390625,-33.69140625,-18.06640625,-61.5234375
126.8828125,-3.90625,-35.15625,-24.4140625,-71.77734375
126.88671875,-20.99609375,-35.15625,-27.83203125,-59.08203125
126.890625,-32.71484375,-47.36328125,-34.1796875,-73.2421875
126.89453125,-44.921875,-53.7109375,-43.9453125,-87.890625
126.8984375,-46.875,-44.921875,-40.0390625,-49.31640625
126.90234375,-29.296875,-41.50390625,-36.62109375,-33.69140625
126.90625,-18.5546875,-35.64453125,-31.25,-13.671875
126.91015625,-22.94921875,-33.69140625,-29.296875,-50.78125
126.9140625,-18.5546875,-33.69140625,-33.203125,-57.6171875
126.91796875,-18.5546875,-29.296875,-35.15625,-58.59375
126.921875,-18.5546875,-29.296875,-40.52734375,-77.63671875
126.92578125,-35.15625,-32.71484375,-40.0390625,-41.015625
126.9296875,-40.52734375,-41.9921875,-41.9921875,-50.78125
126.93359375,-62.01171875,-45.41015625,-49.8046875,-62.5
126.9375,-42.96875,-48.33984375,-47.36328125,-62.98828125
126.94140625,-8.7890625,-43.9453125,-38.0859375,-61.03515625
126.9453125,3.41796875,-33.203125,-28.80859375,-16.11328125
126.94921875,-3.41796875,-31.73828125,-32.2265625,1.953125
126.953125,-35.15625,-40.0390625,-43.45703125,-24.4140625
126.95703125,-43.9453125,-41.9921875,-48.828125,-61.5234375
126.9609375,-41.9921875,-37.59765625,-51.7578125,-51.26953125
126.96484375,-27.34375,-39.0625,-46.875,-54.19921875
126.96875,-24.4140625,-38.0859375,-40.0390625,-74.21875
126.97265625,-24.90234375,-34.1796875,-38.57421875,-61.03515625
126.9765625,-32.2265625,-35.64453125,-43.9453125,-56.640625
126.98046875,-41.50390625,-44.43359375,-48.33984375,-59.08203125
126.984375,-38.57421875,-45.8984375,-47.36328125,-65.4296875
126.98828125,-32.71484375,-44.43359375,-43.45703125,-31.25
126.9921875,-18.06640625,-38.57421875,-41.015625,-38.0859375
126.99609375,-26.3671875,-33.203125,-35.15625,-13.18359375
127.0,-47.8515625,-30.76171875,-35.64453125,-9.765625
127.00390625,-22.4609375,-26.3671875,-35.15625,-66.40625
127.0078125,-14.16015625,-24.4140625,-30.76171875,-57.6171875
127.01171875,-33.203125,-28.80859375,-22.94921875,-24.4140625
127.015625,-40.52734375,-25.390625,-20.01953125,-27.34375
127.01953125,-20.99609375,-23.92578125,-23.92578125,-35.15625
127.0234375,-19.53125,-24.4140625,-26.85546875,-26.3671875
127.02734375,-39.55078125,-19.53125,-26.85546875,-23.92578125
127.03125,-33.69140625,-17.578125,-25.87890625,-20.01953125
127.03515625,-28.80859375,-18.06640625,-30.2734375,-21.484375
127.0390625,-44.43359375,-13.671875,-39.0625,-30.76171875
127.04296875,-52.734375,-10.7421875,-36.62109375,-4.39453125
127.046875,-41.9921875,-15.13671875,-31.73828125,-25.390625
127.05078125,-33.203125,-19.53125,-33.69140625,-52.734375
127.0546875,-41.50390625,-25.390625,-38.57421875,-59.5703125
127.05859375,-31.73828125,-29.78515625,-41.015625,-70.3125
127.0625,-20.99609375,-29.78515625,-36.62109375,-58.10546875
127.06640625,-26.85546875,-27.34375,-33.203125,-57.6171875
127.0703125,-43.9453125,-28.80859375,-35.15625,-68.84765625
127.07421875,-62.98828125,-34.66796875,-47.36328125,-109.375
127.078125,-53.22265625,-33.69140625,-37.59765625,-79.58984375
127.08203125,-21.97265625,-27.34375,-20.01953125,-43.45703125
127.0859375,-20.99609375,-27.83203125,-38.0859375,-71.77734375
127.08984375,-55.17578125,-36.1328125,-46.875,-101.07421875
127.09375,-46.875,-39.55078125,-38.57421875,-118.1640625
127.09765625,-27.34375,-31.73828125,-37.59765625,-92.28515625
127.1015625,-16.11328125,-26.3671875,-31.73828125,-29.296875
127.10546875,-8.30078125,-35.15625,-33.203125,-47.8515625
127.109375,-12.6953125,-38.0859375,-35.15625,-83.984375
127.11328125,-27.34375,-44.43359375,-37.109375,-78.125
127.1171875,-41.015625,-43.45703125,-42.48046875,-41.50390625
127.12109375,-31.73828125,-40.52734375,-42.48046875,-64.453125
127.125,7.32421875,-42.96875,-43.45703125,-117.1875
127.12890625,-43.9453125,-41.9921875,-48.828125,-81.54296875
127.1328125,-60.546875,-44.43359375,-50.78125,-68.84765625
127.13671875,-30.76171875,-44.43359375,-47.8515625,-64.94140625
127.140625,-28.3203125,-48.33984375,-49.31640625,-26.3671875
127.14453125,-31.73828125,-43.45703125,-49.31640625,-18.06640625
127.1484375,-25.390625,-31.73828125,-38.0859375,-21.97265625
127.15234375,-23.4375,-33.69140625,-37.59765625,-56.15234375
127.15625,-20.5078125,-29.78515625,-38.57421875,-47.36328125
127.16015625,-9.765625,-27.83203125,-37.59765625,-16.11328125
127.1640625,-12.20703125,-38.57421875,-42.48046875,-26.85546875
127.16796875,-27.83203125,-42.96875,-43.9453125,-31.73828125
127.171875,-46.875,-42.96875,-41.50390625,-59.5703125
127.17578125,-13.18359375,-41.9921875,-37.109375,-61.5234375
127.1796875,-6.8359375,-39.0625,-38.57421875,-0.48828125
127.18359375,-26.3671875,-48.33984375,-50.78125,-15.13671875
127.1875,-30.76171875,-47.8515625,-53.7109375,-55.17578125
127.19140625,-55.6640625,-42.48046875,-49.8046875,-50.29296875
127.1953125,-50.29296875,-48.33984375,-46.38671875,-44.921875
127.19921875,-36.1328125,-49.8046875,-47.8515625,-20.01953125
127.203125,-30.76171875,-54.6875,-56.15234375,-4.8828125
127.20703125,-24.90234375,-58.10546875,-57.12890625,-38.0859375
127.2109375,-42.48046875,-56.15234375,-58.10546875,-75.1953125
127.21484375,-42.96875,-55.17578125,-55.17578125,-71.77734375
127.21875,-32.71484375,-52.734375,-49.8046875,-48.828125
127.22265625,-56.15234375,-50.29296875,-51.26953125,-46.38671875
127.2265625,-42.96875,-44.921875,-45.41015625,-1.46484375
127.23046875,-37.59765625,-44.921875,-43.9453125,-9.765625
127.234375,-44.921875,-45.8984375,-47.8515625,-18.06640625
127.23828125,-25.390625,-44.43359375,-44.921875,-6.34765625
127.2421875,-28.80859375,-46.38671875,-46.38671875,-47.8515625
127.24609375,-22.4609375,-48.828125,-51.26953125,-44.921875
127.25,-8.7890625,-39.0625,-40.0390625,-21.484375
127.25390625,-17.08984375,-29.78515625,-21.484375,-2.44140625
127.2578125,-19.04296875,-33.203125,-24.4140625,-11.23046875
127.26171875,-13.671875,-38.0859375,-26.85546875,-26.3671875
127.265625,-22.4609375,-32.2265625,-23.92578125,-21.484375
127.26953125,-27.83203125,-26.85546875,-20.5078125,-4.39453125
127.2734375,11.71875,-24.90234375,-14.16015625,53.22265625
127.27734375,5.859375,-18.5546875,-14.6484375,42.96875
127.28125,-26.85546875,-16.6015625,-26.85546875,-17.08984375
127.28515625,-27.34375,-18.5546875,-30.2734375,-16.6015625
127.2890625,-2.44140625,-22.4609375,-40.0390625,-20.01953125
127.29296875,-31.25,-27.34375,-51.7578125,-44.921875
127.296875,-49.8046875,-25.87890625,-50.78125,-34.66796875
127.30078125,-33.203125,-30.2734375,-56.640625,-46.38671875
127.3046875,-30.76171875,-28.3203125,-56.640625,-60.05859375
127.30859375,-20.99609375,-24.90234375,-51.7578125,-32.2265625
127.3125,-18.5546875,-29.78515625,-54.19921875,-2.9296875
127.31640625,-29.296875,-30.76171875,-51.7578125,-23.4375
127.3203125,-48.33984375,-35.15625,-53.7109375,-61.5234375
127.32421875,-44.921875,-38.57421875,-60.05859375,-46.875
127.328125,-36.62109375,-37.59765625,-59.5703125,11.71875
127.33203125,-39.0625,-35.15625,-62.01171875,-19.04296875
127.3359375,-65.91796875,-36.1328125,-64.94140625,-39.55078125
127.33984375,-56.15234375,-37.109375,-60.05859375,-18.5546875
127.34375,-27.83203125,-34.1796875,-59.5703125,-24.90234375
127.34765625,-26.3671875,-34.66796875,-57.12890625,-23.92578125
127.3515625,-16.6015625,-33.69140625,-42.96875,-43.45703125
127.35546875,-14.16015625,-30.76171875,-37.59765625,1.953125
127.359375,-14.16015625,-32.2265625,-41.9921875,21.484375
127.36328125,-37.59765625,-40.0390625,-46.875,-48.33984375
127.3671875,-20.01953125,-41.9921875,-50.29296875,-12.6953125
127.37109375,-20.5078125,-37.59765625,-47.36328125,-4.39453125
127.375,-31.73828125,-33.69140625,-46.38671875,-47.36328125
127.37890625,-15.13671875,-34.66796875,-47.8515625,4.39453125
127.3828125,-22.94921875,-39.55078125,-45.41015625,18.06640625
127.38671875,-44.43359375,-41.015625,-45.8984375,-17.08984375
127.390625,-39.0625,-38.0859375,-42.48046875,1.46484375
127.39453125,-24.90234375,-38.57421875,-40.52734375,4.39453125
127.3984375,-22.94921875,-42.96875,-42.96875,-30.2734375
127.40234375,-34.1796875,-41.015625,-43.9453125,-29.78515625
127.40625,-32.71484375,-38.57421875,-44.921875,-6.34765625
127.41015625,-43.9453125,-41.50390625,-44.921875,-0.48828125
127.4140625,-39.0625,-41.015625,-47.36328125,-18.5546875
127.41796875,-37.59765625,-33.203125,-43.9453125,-23.92578125
127.421875,-40.52734375,-31.73828125,-39.55078125,-19.53125
127.42578125,3.41796875,-32.71484375,-35.64453125,-3.90625
127.4296875,5.37109375,-37.109375,-32.71484375,-1.46484375
127.43359375,-19.53125,-41.50390625,-35.15625,-25.87890625
127.4375,-23.4375,-41.015625,-33.69140625,-9.27734375
127.44140625,-18.5546875,-39.0625,-29.78515625,-2.44140625
127.4453125,-15.625,-41.015625,-33.69140625,-44.43359375
127.44921875,-25.87890625,-42.96875,-42.48046875,-56.640625
127.453125,-41.50390625,-41.9921875,-39.55078125,-60.546875
127.45703125,-47.8515625,-36.62109375,-31.25,-83.49609375
127.4609375,-21.97265625,-33.203125,-29.78515625,-53.7109375
127.46484375,-2.9296875,-31.25,-29.78515625,-11.71875
127.46875,-16.6015625,-30.76171875,-30.76171875,-26.85546875
127.47265625,-49.31640625,-37.59765625,-33.69140625,-44.921875
127.4765625,-16.6015625,-39.55078125,-27.34375,0.9765625
127.48046875,-12.6953125,-29.78515625,-21.97265625,12.6953125
127.484375,-48.33984375,-25.390625,-21.97265625,-34.1796875
127.48828125,-35.15625,-27.83203125,-20.5078125,-51.26953125
127.4921875,-45.41015625,-37.109375,-28.80859375,-55.17578125
127.49609375,-46.38671875,-42.48046875,-35.15625,-43.9453125
127.5,-47.8515625,-41.015625,-38.0859375,-28.3203125
127.50390625,-57.6171875,-42.96875,-36.1328125,-33.69140625
127.5078125,-48.828125,-37.59765625,-31.73828125,-47.36328125
127.51171875,-41.9921875,-34.66796875,-32.71484375,-34.66796875
127.515625,-47.36328125,-43.45703125,-34.1796875,-33.69140625
127.51953125,-49.31640625,-45.8984375,-36.62109375,-50.29296875
127.5234375,-31.73828125,-39.0625,-36.62109375,-46.875
127.52734375,-29.296875,-41.9921875,-41.015625,-32.71484375
127.53125,-31.73828125,-42.48046875,-46.38671875,-23.4375
127.53515625,-2.44140625,-40.0390625,-46.875,-46.875
127.5390625,-37.109375,-43.45703125,-46.875,-53.22265625
127.54296875,-65.4296875,-45.8984375,-50.29296875,-34.66796875
127.546875,-52.24609375,-44.43359375,-53.22265625,-36.1328125
127.55078125,-64.94140625,-43.45703125,-52.24609375,-50.29296875
127.5546875,-67.87109375,-45.8984375,-43.45703125,-60.05859375
127.55859375,-42.48046875,-44.921875,-39.0625,-69.82421875
127.5625,-30.76171875,-41.50390625,-44.43359375,-52.24609375
127.56640625,-20.99609375,-40.52734375,-44.921875,8.30078125
127.5703125,-32.2265625,-46.38671875,-43.45703125,-36.1328125
127.57421875,-45.8984375,-47.8515625,-47.36328125,-60.05859375
127.578125,-44.43359375,-37.59765625,-48.33984375,-25.390625
127.58203125,-32.71484375,-33.203125,-44.43359375,-23.92578125
127.5859375,-41.015625,-37.59765625,-43.9453125,-33.69140625
127.58984375,-54.19921875,-41.015625,-38.57421875,-60.546875
127.59375,-35.15625,-40.52734375,-30.2734375,-62.01171875
127.59765625,-21.484375,-30.76171875,-24.90234375,-54.19921875
127.6015625,-21.97265625,-27.34375,-25.390625,-47.36328125
127.60546875,-21.484375,-32.2265625,-33.203125,-43.9453125
127.609375,-20.99609375,-32.2265625,-39.55078125,-37.109375
127.61328125,-33.203125,-33.69140625,-41.015625,-5.37109375
127.6171875,-39.55078125,-36.62109375,-47.8515625,-27.83203125
127.62109375,-41.9921875,-38.57421875,-50.29296875,-54.6875
127.625,-59.5703125,-39.0625,-50.29296875,-55.6640625
127.62890625,-52.24609375,-34.1796875,-45.41015625,-36.1328125
127.6328125,-22.4609375,-29.78515625,-39.55078125,-37.59765625
127.63671875,-31.25,-31.73828125,-43.45703125,-65.4296875
127.640625,-39.55078125,-30.2734375,-39.55078125,-43.9453125
127.64453125,-20.01953125,-29.296875,-37.59765625,-26.3671875
127.6484375,-27.83203125,-30.2734375,-37.59765625,-28.80859375
127.65234375,-15.13671875,-28.80859375,-35.15625,-24.4140625
127.65625,-13.671875,-28.3203125,-40.52734375,-27.34375
127.66015625,-26.85546875,-31.25,-38.0859375,-30.76171875
127.6640625,-29.296875,-35.15625,-35.64453125,-15.625
127.66796875,4.8828125,-31.73828125,-38.0859375,19.53125
127.671875,-5.37109375,-34.66796875,-41.50390625,-21.484375
127.67578125,-16.6015625,-42.48046875,-50.29296875,-50.78125
127.6796875,-19.04296875,-41.015625,-53.7109375,-20.99609375
127.68359375,-35.64453125,-41.015625,-53.7109375,-42.48046875
127.6875,-43.45703125,-38.57421875,-59.5703125,-75.1953125
127.69140625,-51.26953125,-40.0390625,-63.96484375,-69.82421875
127.6953125,-63.4765625,-46.875,-64.94140625,-26.3671875
127.69921875,-44.921875,-45.41015625,-63.96484375,-7.8125
127.703125,-37.109375,-41.9921875,-62.5,-66.40625
127.70703125,-26.85546875,-43.9453125,-56.640625,-63.96484375
127.7109375,3.90625,-48.33984375,-52.24609375,-40.0390625
127.71484375,-15.13671875,-45.41015625,-48.828125,-51.26953125
127.71875,-44.921875,-45.41015625,-51.26953125,-58.10546875
127.72265625,-49.31640625,-48.828125,-55.17578125,-39.0625
127.7265625,-41.50390625,-46.38671875,-55.6640625,-54.19921875
127.73046875,-10.7421875,-46.875,-58.59375,-26.85546875
127.734375,-17.08984375,-48.33984375,-53.22265625,-11.23046875
127.73828125,-50.29296875,-50.78125,-56.640625,-63.4765625
127.7421875,-49.8046875,-50.29296875,-62.01171875,-41.015625
127.74609375,-15.625,-51.7578125,-59.5703125,-19.53125
127.75,-9.27734375,-53.22265625,-59.08203125,-46.38671875
127.75390625,-24.90234375,-47.8515625,-54.6875,-42.96875
127.7578125,-42.48046875,-43.9453125,-55.17578125,-55.6640625
127.76171875,-49.8046875,-48.33984375,-60.05859375,-6.8359375
127.765625,-8.7890625,-46.38671875,-53.22265625,14.16015625
127.76953125,-7.32421875,-43.9453125,-54.6875,-35.64453125
127.7734375,-38.57421875,-45.8984375,-58.10546875,-51.7578125
127.77734375,-49.8046875,-44.43359375,-53.7109375,-60.05859375
127.78125,-25.87890625,-41.50390625,-48.828125,-57.12890625
127.78515625,4.39453125,-38.57421875,-48.828125,-35.64453125
127.7890625,-17.08984375,-38.0859375,-43.45703125,-15.13671875
127.79296875,-46.38671875,-42.48046875,-47.36328125,-13.18359375
127.796875,-39.55078125,-46.38671875,-55.17578125,-9.27734375
127.80078125,-31.73828125,-40.52734375,-52.24609375,-34.1796875
127.8046875,-20.99609375,-29.78515625,-53.22265625,-23.92578125
127.80859375,-28.80859375,-30.2734375,-56.640625,-21.484375
127.8125,-45.8984375,-37.109375,-57.12890625,-34.1796875
127.81640625,-27.83203125,-41.9921875,-56.640625,-23.92578125
127.8203125,-32.2265625,-39.55078125,-58.59375,-40.0390625
127.82421875,-35.64453125,-41.50390625,-57.6171875,-40.0390625
127.828125,-26.85546875,-44.921875,-55.17578125,-28.3203125
127.83203125,-26.3671875,-44.43359375,-54.19921875,-29.296875
127.8359375,-22.94921875,-43.9453125,-54.19921875,-47.36328125
127.83984375,-26.3671875,-44.921875,-57.6171875,-62.01171875
127.84375,-35.15625,-45.8984375,-64.94140625,-57.6171875
127.84765625,-45.8984375,-49.8046875,-68.359375,-37.59765625
127.8515625,-49.31640625,-52.734375,-63.4765625,-13.18359375
127.85546875,-42.48046875,-48.33984375,-55.6640625,-37.109375
127.859375,-33.203125,-42.96875,-46.875,-50.29296875
127.86328125,-11.71875,-42.48046875,-40.52734375,-40.0390625
127.8671875,-12.20703125,-42.96875,-40.52734375,-35.64453125
127.87109375,-34.66796875,-39.0625,-44.921875,-30.76171875
127.875,-29.78515625,-35.15625,-46.38671875,-20.5078125
127.87890625,-38.0859375,-33.203125,-40.52734375,-39.0625
