Timestamp,TP9,AF7,AF8,TP10
0.00390625,-37.109375,-41.9921875,-33.69140625,24.90234375
0.0078125,6.34765625,-44.921875,-30.76171875,11.23046875
0.01171875,-18.06640625,-51.7578125,-29.296875,30.76171875
0.015625,-12.6953125,-55.17578125,-26.3671875,3.90625
0.01953125,-30.2734375,-52.734375,-23.92578125,-25.390625
0.0234375,-20.01953125,-56.640625,-29.296875,29.78515625
0.02734375,34.1796875,-60.05859375,-32.71484375,46.875
0.03125,4.39453125,-60.05859375,-31.25,7.32421875
0.03515625,-26.85546875,-59.5703125,-29.296875,2.44140625
0.0390625,-7.8125,-60.546875,-31.73828125,29.78515625
0.04296875,-15.625,-58.59375,-33.69140625,23.92578125
0.046875,-2.44140625,-60.546875,-31.73828125,9.765625
0.05078125,-4.8828125,-60.546875,-27.83203125,39.0625
0.0546875,4.8828125,-58.59375,-29.78515625,56.640625
0.05859375,30.76171875,-62.01171875,-32.71484375,12.6953125
0.0625,24.90234375,-65.91796875,-33.69140625,35.15625
0.06640625,19.53125,-58.10546875,-32.71484375,46.38671875
0.0703125,-3.41796875,-54.19921875,-36.62109375,34.66796875
0.07421875,30.76171875,-55.6640625,-33.203125,41.50390625
0.078125,36.1328125,-55.17578125,-32.2265625,4.39453125
0.08203125,48.828125,-49.8046875,-38.0859375,2.9296875
0.0859375,44.921875,-51.7578125,-34.66796875,55.6640625
0.08984375,7.32421875,-55.6640625,-34.1796875,94.23828125
0.09375,2.9296875,-53.7109375,-39.0625,27.83203125
0.09765625,11.71875,-54.6875,-35.64453125,-0.9765625
0.1015625,20.99609375,-54.19921875,-40.0390625,25.390625
0.10546875,21.484375,-54.19921875,-44.43359375,31.25
0.109375,21.484375,-59.5703125,-39.55078125,34.1796875
0.11328125,38.57421875,-61.5234375,-39.55078125,30.76171875
0.1171875,51.7578125,-59.5703125,-44.43359375,42.48046875
0.12109375,31.25,-53.7109375,-45.8984375,43.9453125
0.125,6.8359375,-47.36328125,-41.50390625,21.484375
0.12890625,34.66796875,-45.8984375,-37.59765625,23.4375
0.1328125,76.66015625,-44.43359375,-34.1796875,20.01953125
0.13671875,-4.39453125,-45.8984375,-33.203125,17.578125
0.140625,-3.90625,-47.36328125,-34.1796875,56.640625
0.14453125,23.92578125,-45.41015625,-33.69140625,70.80078125
0.1484375,-2.9296875,-44.43359375,-32.71484375,33.69140625
0.15234375,38.57421875,-48.828125,-34.1796875,31.73828125
0.15625,59.08203125,-49.31640625,-29.78515625,76.171875
0.16015625,47.8515625,-39.55078125,-26.85546875,36.1328125
0.1640625,63.4765625,-36.1328125,-27.34375,-0.48828125
0.16796875,4.39453125,-43.45703125,-32.2265625,14.16015625
0.171875,-16.11328125,-46.875,-30.76171875,20.5078125
0.17578125,-11.71875,-39.0625,-30.76171875,29.296875
0.1796875,-12.6953125,-35.15625,-33.203125,24.90234375
0.18359375,14.6484375,-42.48046875,-32.71484375,13.18359375
0.1875,-1.46484375,-46.875,-40.0390625,0.48828125
0.19140625,8.30078125,-45.8984375,-37.59765625,19.04296875
0.1953125,29.78515625,-41.015625,-32.2265625,10.25390625
0.19921875,30.76171875,-39.55078125,-37.109375,-26.85546875
0.203125,0.0,-48.33984375,-40.52734375,15.625
0.20703125,8.7890625,-50.29296875,-39.55078125,19.53125
0.2109375,36.1328125,-42.48046875,-39.0625,-52.734375
0.21484375,-4.8828125,-47.8515625,-37.59765625,-58.10546875
0.21875,-57.12890625,-53.22265625,-41.50390625,-11.23046875
0.22265625,-32.2265625,-45.41015625,-39.0625,8.7890625
0.2265625,-20.01953125,-41.50390625,-34.1796875,-3.41796875
0.23046875,-19.04296875,-40.52734375,-39.0625,-15.13671875
0.234375,-20.99609375,-44.43359375,-43.9453125,-18.06640625
0.23828125,-13.18359375,-46.875,-42.96875,-4.39453125
0.2421875,13.671875,-47.8515625,-47.36328125,11.71875
0.24609375,24.4140625,-49.31640625,-45.41015625,5.859375
0.25,-3.41796875,-46.38671875,-42.96875,-15.13671875
0.25390625,0.0,-43.9453125,-46.38671875,-28.3203125
0.2578125,-21.484375,-43.9453125,-48.828125,-18.06640625
0.26171875,-38.0859375,-42.48046875,-45.8984375,10.7421875
0.265625,-16.6015625,-44.921875,-47.36328125,1.953125
0.26953125,0.48828125,-44.921875,-49.31640625,-20.99609375
0.2734375,2.44140625,-48.33984375,-51.7578125,-17.08984375
0.27734375,11.23046875,-49.31640625,-48.828125,-1.46484375
0.28125,11.23046875,-42.48046875,-44.921875,-6.8359375
0.28515625,-11.71875,-41.9921875,-50.78125,-26.85546875
0.2890625,-11.71875,-48.33984375,-54.6875,-31.73828125
0.29296875,0.48828125,-46.38671875,-51.26953125,-11.71875
0.296875,-23.92578125,-44.43359375,-47.36328125,3.90625
0.30078125,-27.34375,-47.36328125,-46.38671875,-2.9296875
0.3046875,-25.390625,-43.45703125,-49.8046875,-35.15625
0.30859375,-2.9296875,-40.52734375,-49.31640625,-40.0390625
0.3125,-8.30078125,-47.36328125,-47.36328125,-29.78515625
0.31640625,-25.87890625,-43.45703125,-43.9453125,-38.0859375
0.3203125,-8.30078125,-38.57421875,-41.9921875,-26.85546875
0.32421875,-9.765625,-43.9453125,-47.8515625,-42.96875
0.328125,-13.671875,-39.55078125,-47.8515625,-26.85546875
0.33203125,-1.953125,-37.109375,-44.921875,-5.859375
0.3359375,-3.41796875,-37.109375,-44.43359375,-8.30078125
0.33984375,-37.109375,-38.57421875,-45.41015625,2.44140625
0.34375,-45.8984375,-44.43359375,-48.828125,1.953125
0.34765625,-32.71484375,-45.41015625,-52.734375,-36.1328125
0.3515625,-17.578125,-43.45703125,-51.7578125,-36.62109375
0.35546875,-3.41796875,-44.921875,-48.33984375,-15.625
0.359375,-17.578125,-49.31640625,-48.33984375,-41.9921875
0.36328125,-26.85546875,-47.36328125,-51.7578125,-48.33984375
0.3671875,-36.62109375,-47.36328125,-56.640625,-31.73828125
0.37109375,-32.2265625,-50.29296875,-61.03515625,-21.484375
0.375,-32.2265625,-45.41015625,-53.7109375,-37.109375
0.37890625,-16.11328125,-43.45703125,-49.31640625,-42.48046875
0.3828125,-9.765625,-42.48046875,-52.734375,-28.3203125
0.38671875,-43.9453125,-44.921875,-41.9921875,-12.6953125
0.390625,-31.25,-46.38671875,-37.109375,12.6953125
0.39453125,-8.7890625,-43.9453125,-44.921875,-22.94921875
0.3984375,-4.39453125,-46.38671875,-44.921875,-39.0625
0.40234375,-9.27734375,-45.8984375,-43.45703125,-22.4609375
0.40625,0.0,-43.45703125,-44.921875,-15.625
0.41015625,0.0,-44.921875,-42.96875,-17.08984375
0.4140625,-22.94921875,-45.41015625,-37.109375,5.37109375
0.41796875,-5.859375,-48.33984375,-40.0390625,4.8828125
0.421875,1.953125,-47.8515625,-46.875,-13.671875
0.42578125,-6.8359375,-42.48046875,-47.36328125,-1.46484375
0.4296875,-11.23046875,-46.875,-48.33984375,16.11328125
0.43359375,-33.203125,-51.26953125,-51.7578125,-6.8359375
0.4375,-28.3203125,-48.828125,-48.33984375,-30.76171875
0.44140625,-11.71875,-48.33984375,-43.9453125,-22.4609375
0.4453125,-13.671875,-46.38671875,-45.41015625,-23.92578125
0.44921875,-10.7421875,-43.9453125,-43.45703125,-22.94921875
0.453125,-22.4609375,-46.875,-45.8984375,-26.3671875
0.45703125,-32.71484375,-46.38671875,-45.8984375,-23.92578125
0.4609375,-44.921875,-46.38671875,-44.43359375,-41.015625
0.46484375,-26.3671875,-48.828125,-44.921875,-23.92578125
0.46875,7.8125,-43.9453125,-40.52734375,-12.6953125
0.47265625,-4.39453125,-41.9921875,-37.59765625,-24.90234375
0.4765625,-15.625,-46.875,-39.0625,-20.01953125
0.48046875,-32.71484375,-50.29296875,-44.43359375,-10.25390625
0.484375,-46.875,-43.9453125,-43.9453125,-16.11328125
0.48828125,-38.0859375,-37.59765625,-41.015625,-24.4140625
0.4921875,-37.109375,-37.109375,-37.59765625,-25.87890625
0.49609375,-21.97265625,-42.48046875,-36.1328125,-20.01953125
0.5,-9.765625,-43.45703125,-45.41015625,-26.85546875
0.50390625,-20.01953125,-43.9453125,-41.015625,-30.76171875
0.5078125,-4.8828125,-49.31640625,-35.64453125,-10.7421875
0.51171875,18.5546875,-50.78125,-40.0390625,-0.48828125
0.515625,36.1328125,-47.36328125,-43.9453125,10.25390625
0.51953125,29.296875,-44.43359375,-40.0390625,51.26953125
0.5234375,-10.25390625,-47.8515625,-27.83203125,17.578125
0.52734375,-17.08984375,-51.7578125,-29.78515625,-33.203125
0.53125,-1.953125,-47.8515625,-38.0859375,-5.37109375
0.53515625,22.94921875,-46.875,-34.66796875,35.15625
0.5390625,10.7421875,-51.26953125,-30.76171875,37.109375
0.54296875,10.7421875,-52.734375,-27.34375,31.73828125
0.546875,18.5546875,-50.29296875,-26.3671875,42.96875
0.55078125,38.57421875,-50.78125,-26.85546875,56.15234375
0.5546875,78.61328125,-49.8046875,-26.3671875,83.49609375
0.55859375,33.69140625,-44.43359375,-30.2734375,62.01171875
0.5625,7.32421875,-41.015625,-33.69140625,29.296875
0.56640625,46.38671875,-41.015625,-34.1796875,22.94921875
0.5703125,54.6875,-39.55078125,-38.57421875,35.15625
0.57421875,15.13671875,-35.15625,-40.52734375,60.546875
0.578125,-10.25390625,-39.55078125,-36.1328125,69.82421875
0.58203125,29.296875,-40.52734375,-31.25,28.80859375
0.5859375,34.66796875,-40.0390625,-33.203125,22.4609375
0.58984375,16.6015625,-45.8984375,-32.71484375,29.296875
0.59375,12.20703125,-48.828125,-32.2265625,37.109375
0.59765625,34.66796875,-44.43359375,-34.66796875,29.78515625
0.6015625,14.6484375,-41.50390625,-36.1328125,8.7890625
0.60546875,-4.8828125,-49.31640625,-35.15625,17.08984375
0.609375,24.4140625,-46.38671875,-31.25,25.87890625
0.61328125,20.99609375,-39.0625,-27.83203125,-0.48828125
0.6171875,3.90625,-46.38671875,-33.203125,-6.8359375
0.62109375,20.99609375,-47.8515625,-38.0859375,33.203125
0.625,6.8359375,-42.96875,-34.66796875,29.296875
0.62890625,-6.34765625,-42.48046875,-35.64453125,-19.04296875
0.6328125,-0.48828125,-45.8984375,-44.921875,3.90625
0.63671875,-5.859375,-44.921875,-42.48046875,26.3671875
0.640625,-1.46484375,-43.45703125,-41.015625,8.7890625
0.64453125,-15.13671875,-46.38671875,-47.36328125,4.8828125
0.6484375,-3.41796875,-45.8984375,-41.50390625,7.32421875
0.65234375,2.44140625,-46.875,-40.52734375,6.34765625
0.65625,-27.34375,-51.26953125,-45.8984375,-14.16015625
0.66015625,-29.296875,-52.734375,-46.875,-21.97265625
0.6640625,-23.4375,-51.26953125,-46.38671875,-31.25
0.66796875,-30.76171875,-52.24609375,-50.29296875,-39.0625
0.671875,-26.3671875,-49.31640625,-49.31640625,-17.08984375
0.67578125,-14.6484375,-43.9453125,-43.9453125,-1.46484375
0.6796875,-26.85546875,-42.96875,-44.43359375,-5.859375
0.68359375,-53.22265625,-42.48046875,-38.57421875,10.25390625
0.6875,3.41796875,-41.50390625,-35.64453125,12.6953125
0.69140625,6.34765625,-38.57421875,-39.55078125,-26.85546875
0.6953125,-48.33984375,-47.36328125,-44.921875,-18.06640625
0.69921875,-65.91796875,-49.8046875,-50.78125,-65.91796875
0.703125,-52.24609375,-49.31640625,-53.7109375,-62.98828125
0.70703125,-31.73828125,-50.78125,-53.22265625,-16.6015625
0.7109375,-73.73046875,-48.828125,-51.26953125,-26.85546875
0.71484375,-42.48046875,-55.6640625,-50.29296875,-36.1328125
0.71875,-1.953125,-59.08203125,-50.29296875,-22.94921875
0.72265625,-10.7421875,-52.24609375,-45.8984375,-5.37109375
0.7265625,-4.39453125,-49.31640625,-41.50390625,-11.71875
0.73046875,-14.6484375,-49.8046875,-41.9921875,-36.62109375
0.734375,-35.15625,-50.29296875,-41.50390625,-17.08984375
0.73828125,-48.828125,-50.78125,-43.9453125,1.953125
0.7421875,-59.08203125,-50.29296875,-43.45703125,-20.99609375
0.74609375,-4.8828125,-46.875,-39.0625,-18.5546875
0.75,-18.06640625,-49.8046875,-41.015625,-15.13671875
0.75390625,-48.828125,-50.29296875,-41.50390625,-21.484375
0.7578125,-29.78515625,-43.9453125,-41.50390625,13.18359375
0.76171875,-36.1328125,-46.875,-42.96875,-5.859375
0.765625,-17.578125,-51.7578125,-47.8515625,-47.36328125
0.76953125,1.953125,-50.78125,-47.8515625,-39.55078125
0.7734375,-29.78515625,-48.33984375,-45.41015625,-33.69140625
0.77734375,-41.015625,-50.78125,-49.31640625,-52.734375
0.78125,-20.5078125,-47.36328125,-50.29296875,-37.59765625
0.78515625,-30.2734375,-47.8515625,-49.8046875,-10.25390625
0.7890625,-43.45703125,-52.24609375,-53.7109375,-27.34375
0.79296875,-42.48046875,-52.24609375,-49.8046875,-39.0625
0.796875,-60.05859375,-52.734375,-52.734375,-51.7578125
0.80078125,-62.01171875,-55.17578125,-58.10546875,-62.5
0.8046875,-19.04296875,-55.6640625,-55.6640625,-39.55078125
0.80859375,-35.15625,-53.7109375,-54.6875,-37.109375
0.8125,-39.55078125,-49.31640625,-52.734375,-57.6171875
0.81640625,-30.2734375,-52.24609375,-50.78125,-26.3671875
0.8203125,-43.9453125,-56.15234375,-51.26953125,-25.87890625
0.82421875,-48.33984375,-55.6640625,-53.7109375,-58.10546875
0.828125,-30.76171875,-53.22265625,-51.7578125,-68.84765625
0.83203125,-15.13671875,-53.22265625,-46.875,-61.5234375
0.8359375,-48.828125,-55.6640625,-49.31640625,-42.96875
0.83984375,-48.33984375,-57.12890625,-54.19921875,-20.01953125
0.84375,-9.765625,-54.6875,-54.6875,-6.8359375
0.84765625,-72.75390625,-49.31640625,-46.875,-41.9921875
0.8515625,-31.73828125,-55.6640625,-40.0390625,-40.52734375
0.85546875,17.08984375,-61.03515625,-39.0625,-19.04296875
0.859375,-3.41796875,-58.59375,-39.55078125,-16.6015625
0.86328125,3.90625,-57.12890625,-38.0859375,6.34765625
0.8671875,9.27734375,-54.6875,-33.69140625,27.34375
0.87109375,-17.08984375,-52.734375,-35.64453125,17.08984375
0.875,-27.83203125,-56.640625,-37.59765625,9.27734375
0.87890625,-7.32421875,-56.15234375,-39.0625,40.52734375
0.8828125,-4.39453125,-48.828125,-40.0390625,36.62109375
0.88671875,6.34765625,-51.7578125,-42.96875,-14.6484375
0.890625,14.6484375,-53.7109375,-41.50390625,3.90625
0.89453125,-5.37109375,-49.31640625,-41.015625,-1.953125
0.8984375,-17.578125,-46.38671875,-45.8984375,-22.4609375
0.90234375,-10.7421875,-46.875,-48.828125,9.765625
0.90625,-9.765625,-48.828125,-45.41015625,16.11328125
0.91015625,7.8125,-40.0390625,-39.55078125,16.11328125
0.9140625,15.13671875,-42.96875,-44.43359375,-7.8125
0.91796875,-16.6015625,-49.8046875,-47.36328125,-13.671875
0.921875,-21.97265625,-49.8046875,-44.921875,5.37109375
0.92578125,9.765625,-50.29296875,-46.38671875,-22.4609375
0.9296875,-26.3671875,-53.22265625,-47.36328125,-31.25
0.93359375,-44.43359375,-54.6875,-47.8515625,-15.625
0.9375,22.4609375,-53.7109375,-46.875,2.44140625
0.94140625,4.8828125,-53.22265625,-45.8984375,-0.9765625
0.9453125,-17.08984375,-49.31640625,-41.9921875,-14.6484375
0.94921875,-15.625,-47.8515625,-39.55078125,-8.7890625
0.953125,-15.13671875,-50.29296875,-43.45703125,0.0
0.95703125,-36.1328125,-54.6875,-46.875,-8.7890625
0.9609375,-36.62109375,-58.59375,-52.734375,-10.7421875
0.96484375,-20.5078125,-56.15234375,-53.7109375,-34.1796875
0.96875,-68.359375,-51.7578125,-48.828125,-30.2734375
0.97265625,-35.64453125,-49.8046875,-51.26953125,-11.23046875
0.9765625,0.9765625,-48.33984375,-56.15234375,-15.625
0.98046875,-0.9765625,-47.8515625,-52.734375,-20.99609375
0.984375,-24.90234375,-48.828125,-49.31640625,-36.1328125
0.98828125,-52.24609375,-50.78125,-47.36328125,-33.69140625
0.9921875,-62.5,-52.24609375,-44.43359375,-14.6484375
0.99609375,-50.78125,-55.6640625,-42.48046875,-17.08984375
1.0,-25.87890625,-55.17578125,-42.96875,-41.9921875
1.00390625,-14.6484375,-54.19921875,-41.9921875,-36.62109375
1.0078125,-14.16015625,-57.6171875,-38.0859375,-25.390625
1.01171875,-15.13671875,-55.6640625,-41.015625,-34.1796875
1.015625,-33.69140625,-57.12890625,-48.828125,-48.828125
1.01953125,-36.1328125,-58.10546875,-50.29296875,-55.6640625
1.0234375,-61.5234375,-47.36328125,-45.8984375,-52.24609375
1.02734375,-56.15234375,-44.43359375,-47.36328125,-37.59765625
1.03125,-18.06640625,-48.33984375,-45.8984375,-24.90234375
1.03515625,-53.7109375,-45.41015625,-46.875,-41.50390625
1.0390625,-45.41015625,-46.875,-47.36328125,-31.25
1.04296875,-24.90234375,-49.8046875,-44.43359375,-29.78515625
1.046875,-30.2734375,-56.640625,-46.38671875,-36.1328125
1.05078125,-24.90234375,-57.6171875,-42.48046875,-15.13671875
1.0546875,-39.0625,-54.19921875,-42.48046875,-10.25390625
1.05859375,-25.390625,-51.7578125,-44.921875,-22.94921875
1.0625,-39.0625,-50.29296875,-45.8984375,-44.43359375
1.06640625,-42.96875,-48.33984375,-40.52734375,-39.55078125
1.0703125,-9.765625,-45.8984375,-32.71484375,-23.92578125
1.07421875,-38.0859375,-46.875,-36.62109375,-36.1328125
1.078125,-38.57421875,-48.33984375,-39.55078125,-45.8984375
1.08203125,-36.1328125,-49.31640625,-37.109375,-17.578125
1.0859375,-60.546875,-50.29296875,-37.109375,-8.30078125
1.08984375,-40.0390625,-50.29296875,-43.45703125,-34.1796875
1.09375,-39.0625,-49.8046875,-45.8984375,-27.34375
1.09765625,-45.8984375,-49.31640625,-45.41015625,-49.8046875
1.1015625,-36.1328125,-52.24609375,-46.875,-73.2421875
1.10546875,-42.96875,-54.19921875,-45.41015625,-38.0859375
1.109375,-43.9453125,-58.10546875,-49.31640625,-39.0625
1.11328125,-34.1796875,-61.5234375,-48.828125,-70.3125
1.1171875,-20.01953125,-54.19921875,-40.0390625,-49.31640625
1.12109375,-35.64453125,-54.19921875,-40.52734375,-44.921875
1.125,-68.359375,-59.5703125,-43.45703125,-61.5234375
1.12890625,-61.5234375,-56.640625,-42.48046875,-48.33984375
1.1328125,-41.015625,-54.6875,-37.59765625,-16.11328125
1.13671875,-57.12890625,-55.17578125,-38.57421875,-21.484375
1.140625,-58.59375,-54.6875,-51.7578125,-56.640625
1.14453125,-30.76171875,-54.6875,-60.05859375,-31.73828125
1.1484375,-6.34765625,-58.10546875,-62.98828125,-50.29296875
1.15234375,-10.25390625,-58.59375,-59.5703125,-40.52734375
1.15625,-13.671875,-53.22265625,-57.12890625,3.41796875
1.16015625,-13.18359375,-47.8515625,-54.6875,-2.9296875
1.1640625,-26.85546875,-44.43359375,-47.36328125,-1.953125
1.16796875,-23.92578125,-44.921875,-48.33984375,4.8828125
1.171875,-39.55078125,-45.8984375,-48.828125,-22.94921875
1.17578125,-21.484375,-43.45703125,-43.45703125,-33.69140625
1.1796875,-10.25390625,-41.50390625,-41.50390625,-21.97265625
1.18359375,-30.2734375,-46.38671875,-38.0859375,-39.0625
1.1875,-26.85546875,-45.41015625,-37.109375,-59.5703125
1.19140625,-15.13671875,-41.9921875,-39.0625,-11.71875
1.1953125,-20.01953125,-43.9453125,-41.50390625,-8.30078125
1.19921875,-12.6953125,-43.45703125,-37.109375,-17.578125
1.203125,-21.484375,-47.8515625,-37.109375,-18.06640625
1.20703125,-29.296875,-52.24609375,-40.0390625,-11.71875
1.2109375,-28.3203125,-49.31640625,-42.96875,-25.390625
1.21484375,-28.3203125,-46.875,-44.43359375,-44.43359375
1.21875,-20.5078125,-46.38671875,-40.52734375,-29.296875
1.22265625,-16.11328125,-47.36328125,-43.9453125,-23.92578125
1.2265625,-29.78515625,-48.828125,-49.8046875,-45.41015625
1.23046875,-35.15625,-50.78125,-50.29296875,-49.31640625
1.234375,-44.43359375,-55.6640625,-47.8515625,2.9296875
1.23828125,-61.5234375,-56.15234375,-45.8984375,4.8828125
1.2421875,-23.92578125,-58.59375,-43.45703125,-21.484375
1.24609375,-16.11328125,-59.5703125,-42.96875,-30.2734375
1.25,-18.06640625,-58.10546875,-45.41015625,-26.85546875
1.25390625,-6.8359375,-55.17578125,-45.41015625,-0.48828125
1.2578125,-17.578125,-52.734375,-46.38671875,-9.27734375
1.26171875,-29.296875,-51.26953125,-44.921875,-27.34375
1.265625,-26.85546875,-50.78125,-38.57421875,-20.01953125
1.26953125,-33.69140625,-53.7109375,-41.015625,-16.6015625
1.2734375,-32.71484375,-51.7578125,-44.43359375,-19.53125
1.27734375,-32.71484375,-48.828125,-41.015625,-21.97265625
1.28125,-24.4140625,-43.9453125,-41.9921875,-30.2734375
1.28515625,-12.20703125,-45.8984375,-45.41015625,-37.109375
1.2890625,-34.66796875,-51.7578125,-43.9453125,-26.3671875
1.29296875,-47.36328125,-48.828125,-41.9921875,-2.44140625
1.296875,-37.59765625,-48.828125,-39.0625,-3.90625
1.30078125,-40.0390625,-47.36328125,-37.59765625,-18.5546875
1.3046875,-41.50390625,-48.828125,-39.0625,-14.16015625
1.30859375,-35.64453125,-49.8046875,-36.62109375,-14.6484375
1.3125,-41.9921875,-47.36328125,-32.71484375,-46.38671875
1.31640625,-29.296875,-47.36328125,-31.73828125,-40.52734375
1.3203125,-26.85546875,-46.875,-30.76171875,-19.53125
1.32421875,-29.78515625,-45.8984375,-31.25,2.44140625
1.328125,-26.3671875,-49.31640625,-31.73828125,11.71875
1.33203125,-38.0859375,-49.8046875,-30.2734375,-26.3671875
1.3359375,-34.1796875,-51.26953125,-33.203125,-28.3203125
1.33984375,-32.71484375,-54.6875,-38.0859375,-7.8125
1.34375,-33.69140625,-54.6875,-38.57421875,-15.625
1.34765625,-30.2734375,-53.22265625,-39.0625,-8.30078125
1.3515625,-38.0859375,-54.19921875,-39.55078125,24.90234375
1.35546875,-40.0390625,-59.08203125,-38.57421875,3.41796875
1.359375,-19.04296875,-61.03515625,-32.71484375,-32.71484375
1.36328125,-27.34375,-61.5234375,-29.296875,-30.76171875
1.3671875,-11.71875,-59.08203125,-32.2265625,-0.48828125
1.37109375,-26.85546875,-55.6640625,-35.64453125,-3.41796875
1.375,-52.734375,-55.17578125,-40.52734375,-14.6484375
1.37890625,-46.875,-54.6875,-39.0625,-6.34765625
1.3828125,-61.5234375,-49.31640625,-36.62109375,-6.34765625
1.38671875,-47.8515625,-49.31640625,-37.59765625,-9.765625
1.390625,-31.73828125,-48.33984375,-33.69140625,-11.71875
1.39453125,-22.4609375,-49.31640625,-31.25,-2.9296875
1.3984375,-42.96875,-57.6171875,-31.73828125,-0.9765625
1.40234375,-17.08984375,-59.5703125,-35.15625,-17.08984375
1.40625,0.48828125,-56.15234375,-39.55078125,-3.41796875
1.41015625,-10.7421875,-55.17578125,-32.71484375,49.31640625
1.4140625,-1.953125,-57.12890625,-31.25,1.953125
1.41796875,-16.6015625,-53.22265625,-41.015625,-38.0859375
1.421875,-40.52734375,-55.6640625,-38.57421875,8.30078125
1.42578125,-24.4140625,-61.03515625,-35.15625,11.71875
1.4296875,-39.55078125,-60.05859375,-42.48046875,-3.90625
1.43359375,-39.55078125,-60.05859375,-40.52734375,0.9765625
1.4375,-16.11328125,-59.5703125,-40.52734375,9.765625
1.44140625,-12.20703125,-57.12890625,-42.48046875,27.83203125
1.4453125,-13.671875,-56.15234375,-40.52734375,38.0859375
1.44921875,-33.203125,-57.6171875,-45.41015625,-10.25390625
1.453125,-35.64453125,-51.7578125,-42.48046875,-37.59765625
1.45703125,-43.45703125,-50.78125,-38.0859375,-12.20703125
1.4609375,-30.76171875,-48.33984375,-36.62109375,-11.71875
1.46484375,-35.64453125,-46.875,-35.15625,-20.01953125
1.46875,-64.453125,-59.08203125,-38.0859375,-20.01953125
1.47265625,-37.109375,-63.96484375,-37.109375,-17.578125
1.4765625,-26.3671875,-62.01171875,-35.64453125,-1.953125
1.48046875,-35.15625,-60.05859375,-36.1328125,-16.11328125
1.484375,-30.2734375,-61.03515625,-40.52734375,-15.13671875
1.48828125,-29.78515625,-62.5,-44.43359375,-8.7890625
1.4921875,-39.0625,-62.98828125,-45.41015625,0.48828125
1.49609375,-55.17578125,-60.546875,-45.41015625,0.48828125
1.5,-41.015625,-58.10546875,-41.9921875,30.2734375
1.50390625,-22.4609375,-62.5,-46.875,10.25390625
1.5078125,-33.203125,-60.05859375,-52.734375,-36.62109375
1.51171875,-64.453125,-54.6875,-48.828125,-27.34375
1.515625,-47.36328125,-59.08203125,-48.828125,-16.6015625
1.51953125,-21.97265625,-59.08203125,-48.33984375,2.44140625
1.5234375,-34.1796875,-57.12890625,-47.36328125,28.80859375
1.52734375,-34.66796875,-60.05859375,-41.50390625,51.7578125
1.53125,-5.37109375,-51.26953125,-38.57421875,41.50390625
1.53515625,-42.48046875,-49.8046875,-37.59765625,37.109375
1.5390625,-72.75390625,-50.78125,-39.0625,12.6953125
1.54296875,-52.734375,-49.8046875,-43.45703125,-34.1796875
1.546875,-40.52734375,-55.17578125,-42.96875,-9.765625
1.55078125,-32.71484375,-53.22265625,-34.66796875,-13.671875
1.5546875,-47.8515625,-50.78125,-33.69140625,-25.87890625
1.55859375,-51.7578125,-54.19921875,-41.9921875,3.90625
1.5625,-15.13671875,-53.7109375,-41.015625,-1.46484375
1.56640625,-31.25,-51.7578125,-35.15625,52.24609375
1.5703125,-57.6171875,-53.22265625,-39.0625,55.6640625
1.57421875,-60.546875,-55.17578125,-43.45703125,0.0
1.578125,-51.7578125,-58.10546875,-48.828125,-2.44140625
1.58203125,-69.3359375,-59.5703125,-49.8046875,-7.8125
1.5859375,-58.10546875,-64.94140625,-46.875,-4.8828125
1.58984375,-42.48046875,-66.89453125,-49.31640625,-14.16015625
1.59375,-46.38671875,-62.98828125,-43.45703125,-3.41796875
1.59765625,-30.76171875,-57.6171875,-41.50390625,6.8359375
1.6015625,-13.671875,-53.22265625,-43.45703125,16.11328125
1.60546875,-30.2734375,-55.17578125,-40.0390625,64.94140625
1.609375,-62.5,-58.59375,-43.45703125,21.97265625
1.61328125,-38.0859375,-57.6171875,-49.31640625,-64.94140625
1.6171875,-45.8984375,-58.10546875,-52.734375,-74.70703125
1.62109375,-72.75390625,-57.12890625,-47.8515625,-11.23046875
1.625,-41.9921875,-60.05859375,-45.8984375,-23.4375
1.62890625,-24.90234375,-63.96484375,-47.8515625,-35.15625
1.6328125,-19.04296875,-51.7578125,-50.29296875,18.5546875
1.63671875,0.9765625,-46.38671875,-44.921875,52.24609375
1.640625,-34.1796875,-56.15234375,-34.66796875,20.5078125
1.64453125,-87.40234375,-61.5234375,-33.203125,-17.08984375
1.6484375,-45.41015625,-61.5234375,-36.1328125,12.6953125
1.65234375,-46.38671875,-61.03515625,-40.52734375,33.203125
1.65625,-87.40234375,-62.01171875,-34.1796875,13.671875
1.66015625,-83.984375,-62.98828125,-30.2734375,12.20703125
1.6640625,-51.26953125,-62.5,-33.203125,26.3671875
1.66796875,-40.0390625,-61.03515625,-34.1796875,39.55078125
1.671875,-46.875,-61.5234375,-36.62109375,38.0859375
1.67578125,-74.70703125,-67.3828125,-37.109375,18.5546875
1.6796875,-78.125,-63.96484375,-35.64453125,12.20703125
1.68359375,-38.57421875,-56.640625,-31.25,33.203125
1.6875,-52.734375,-60.05859375,-37.59765625,32.2265625
1.69140625,-41.015625,-61.5234375,-39.55078125,20.01953125
1.6953125,-43.45703125,-64.453125,-43.45703125,20.01953125
1.69921875,-78.61328125,-72.265625,-47.36328125,-10.7421875
1.703125,-66.89453125,-65.4296875,-40.0390625,1.46484375
1.70703125,-60.05859375,-57.12890625,-36.1328125,26.3671875
1.7109375,-56.640625,-62.98828125,-37.109375,52.24609375
1.71484375,-50.78125,-63.96484375,-34.66796875,51.26953125
1.71875,-60.05859375,-60.05859375,-35.64453125,15.13671875
1.72265625,-67.3828125,-60.546875,-41.50390625,11.71875
1.7265625,-69.3359375,-62.5,-40.0390625,5.859375
1.73046875,-53.22265625,-63.4765625,-39.0625,48.828125
1.734375,-64.453125,-56.640625,-41.9921875,30.2734375
1.73828125,-60.05859375,-54.6875,-39.0625,21.97265625
1.7421875,-49.8046875,-60.546875,-41.015625,17.08984375
1.74609375,-72.75390625,-62.01171875,-48.33984375,2.9296875
1.75,-58.10546875,-56.15234375,-44.43359375,15.625
1.75390625,-42.96875,-51.26953125,-36.1328125,19.04296875
1.7578125,-64.94140625,-53.22265625,-44.921875,3.90625
1.76171875,-128.90625,-54.6875,-49.8046875,24.90234375
1.765625,-114.74609375,-61.03515625,-43.9453125,8.30078125
1.76953125,-87.890625,-62.98828125,-45.8984375,-20.99609375
1.7734375,-89.84375,-61.03515625,-44.921875,-2.44140625
1.77734375,-95.703125,-62.98828125,-47.36328125,-20.5078125
1.78125,-115.72265625,-66.40625,-50.29296875,-39.55078125
1.78515625,-130.859375,-69.82421875,-46.38671875,-31.73828125
1.7890625,-145.5078125,-68.359375,-50.29296875,-39.55078125
1.79296875,-140.13671875,-64.94140625,-48.33984375,-71.77734375
1.796875,-166.9921875,-62.5,-46.875,-93.75
1.80078125,-188.4765625,-60.546875,-52.24609375,-111.81640625
1.8046875,-168.9453125,-71.77734375,-48.33984375,-47.8515625
1.80859375,-173.33984375,-79.1015625,-49.8046875,-102.05078125
1.8125,-215.33203125,-74.70703125,-53.7109375,-172.8515625
1.81640625,-240.72265625,-74.70703125,-51.7578125,-149.4140625
1.8203125,-230.46875,-74.21875,-51.26953125,-172.8515625
1.82421875,-239.74609375,-72.75390625,-53.22265625,-189.453125
1.828125,-266.11328125,-77.63671875,-54.6875,-200.1953125
1.83203125,-260.7421875,-78.61328125,-53.7109375,-197.265625
1.8359375,-248.53515625,-75.1953125,-54.6875,-176.7578125
1.83984375,-244.140625,-73.73046875,-47.36328125,-168.45703125
1.84375,-238.76953125,-72.265625,-38.0859375,-153.80859375
1.84765625,-250.9765625,-65.91796875,-42.96875,-186.03515625
1.8515625,-253.90625,-63.96484375,-45.41015625,-197.265625
1.85546875,-247.0703125,-66.40625,-47.36328125,-159.66796875
1.859375,-242.67578125,-67.87109375,-46.875,-159.66796875
1.86328125,-215.8203125,-68.359375,-45.8984375,-191.89453125
1.8671875,-232.91015625,-66.40625,-52.734375,-171.38671875
1.87109375,-233.3984375,-62.5,-52.734375,-147.4609375
1.875,-195.80078125,-57.6171875,-48.828125,-152.83203125
1.87890625,-186.5234375,-58.59375,-54.19921875,-144.04296875
1.8828125,-175.78125,-59.5703125,-55.17578125,-143.5546875
1.88671875,-139.16015625,-61.03515625,-53.7109375,-121.09375
1.890625,-128.90625,-62.98828125,-60.05859375,-109.375
1.89453125,-165.52734375,-57.12890625,-62.01171875,-98.14453125
1.8984375,-169.43359375,-59.08203125,-60.546875,-71.2890625
1.90234375,-131.34765625,-62.01171875,-58.10546875,-67.87109375
1.90625,-102.5390625,-53.7109375,-57.12890625,-50.29296875
1.91015625,-90.33203125,-46.875,-52.734375,-13.671875
1.9140625,-98.14453125,-49.8046875,-52.24609375,-24.90234375
1.91796875,-102.5390625,-50.29296875,-58.10546875,-31.25
1.921875,-105.95703125,-49.31640625,-55.6640625,-35.64453125
1.92578125,-83.0078125,-46.875,-51.7578125,-39.55078125
1.9296875,-74.21875,-43.9453125,-54.19921875,-22.4609375
1.93359375,-72.265625,-47.8515625,-53.22265625,-22.4609375
1.9375,-72.75390625,-49.31640625,-54.6875,0.9765625
1.94140625,-55.6640625,-51.26953125,-54.19921875,0.48828125
1.9453125,-62.01171875,-52.734375,-50.78125,1.46484375
1.94921875,-83.0078125,-52.734375,-51.7578125,-0.9765625
1.953125,-80.078125,-54.6875,-53.7109375,-9.27734375
1.95703125,-66.40625,-49.31640625,-50.78125,-2.44140625
1.9609375,-88.8671875,-44.921875,-50.29296875,19.53125
1.96484375,-81.0546875,-48.828125,-53.7109375,14.16015625
1.96875,-54.19921875,-52.24609375,-51.7578125,-27.83203125
1.97265625,-66.89453125,-49.31640625,-50.29296875,3.41796875
1.9765625,-58.59375,-49.8046875,-51.7578125,65.4296875
1.98046875,-57.12890625,-50.78125,-55.17578125,-25.87890625
1.984375,-64.453125,-49.8046875,-54.6875,-81.0546875
1.98828125,-67.87109375,-47.36328125,-49.31640625,-25.87890625
1.9921875,-77.63671875,-46.38671875,-51.7578125,-30.2734375
1.99609375,-74.21875,-49.31640625,-52.24609375,-20.99609375
2.0,-46.38671875,-54.19921875,-51.26953125,-16.11328125
2.00390625,-37.59765625,-54.19921875,-54.6875,-15.625
2.0078125,-53.7109375,-47.36328125,-55.17578125,-9.765625
2.01171875,-62.01171875,-47.36328125,-58.10546875,-37.59765625
2.015625,-72.75390625,-48.33984375,-54.19921875,-30.76171875
2.01953125,-75.68359375,-46.875,-51.7578125,-9.27734375
2.0234375,-85.44921875,-50.29296875,-61.5234375,-7.32421875
2.02734375,-100.5859375,-54.19921875,-59.08203125,19.04296875
2.03125,-76.66015625,-50.78125,-56.15234375,3.41796875
2.03515625,-89.35546875,-46.38671875,-57.12890625,-30.2734375
2.0390625,-109.86328125,-48.33984375,-56.640625,-65.91796875
2.04296875,-88.8671875,-51.7578125,-59.5703125,-64.453125
2.046875,-108.88671875,-52.734375,-59.08203125,-61.03515625
2.05078125,-110.83984375,-61.03515625,-62.98828125,-50.29296875
2.0546875,-82.51953125,-69.3359375,-66.89453125,-31.73828125
2.05859375,-94.23828125,-62.98828125,-59.5703125,-46.38671875
2.0625,-90.8203125,-62.5,-62.5,-46.38671875
2.06640625,-76.171875,-63.4765625,-65.4296875,-56.640625
2.0703125,-99.609375,-62.01171875,-58.10546875,-39.0625
2.07421875,-115.234375,-65.4296875,-58.59375,-17.578125
2.078125,-108.3984375,-62.98828125,-62.98828125,-42.96875
2.08203125,-132.32421875,-62.01171875,-59.08203125,-46.875
2.0859375,-130.859375,-60.05859375,-60.546875,-76.66015625
2.08984375,-122.55859375,-59.08203125,-65.91796875,-87.40234375
2.09375,-84.47265625,-62.98828125,-66.40625,-46.875
2.09765625,-104.98046875,-57.6171875,-62.98828125,-50.29296875
2.1015625,-118.1640625,-56.640625,-58.10546875,-69.3359375
2.10546875,-84.47265625,-61.03515625,-56.15234375,-57.12890625
2.109375,-75.1953125,-63.4765625,-66.40625,-92.28515625
2.11328125,-115.234375,-63.96484375,-70.80078125,-88.37890625
2.1171875,-118.1640625,-58.59375,-59.5703125,-62.5
2.12109375,-106.4453125,-54.6875,-51.7578125,-38.0859375
2.125,-130.37109375,-53.22265625,-52.734375,-62.01171875
2.12890625,-87.40234375,-52.734375,-55.17578125,-84.9609375
2.1328125,-87.40234375,-56.15234375,-57.12890625,-68.84765625
2.13671875,-144.53125,-58.10546875,-57.12890625,-54.19921875
2.140625,-105.95703125,-57.6171875,-57.6171875,-41.9921875
2.14453125,-90.8203125,-57.6171875,-58.10546875,-87.890625
2.1484375,-108.88671875,-59.5703125,-53.22265625,-99.12109375
2.15234375,-93.75,-61.5234375,-49.8046875,-63.4765625
2.15625,-90.33203125,-54.6875,-59.08203125,-41.9921875
2.16015625,-101.5625,-54.19921875,-62.5,-85.9375
2.1640625,-104.00390625,-54.19921875,-51.7578125,-91.30859375
2.16796875,-102.5390625,-49.31640625,-53.22265625,-62.5
2.171875,-136.71875,-47.36328125,-57.12890625,-56.15234375
2.17578125,-120.1171875,-48.33984375,-54.6875,-62.98828125
2.1796875,-77.63671875,-51.26953125,-52.24609375,-77.63671875
2.18359375,-83.984375,-51.7578125,-51.26953125,-86.9140625
2.1875,-93.26171875,-48.33984375,-46.875,-56.640625
2.19140625,-117.67578125,-48.33984375,-46.875,-54.6875
2.1953125,-121.58203125,-54.6875,-53.22265625,-86.42578125
2.19921875,-112.79296875,-56.15234375,-51.26953125,-77.1484375
2.203125,-120.1171875,-50.78125,-52.24609375,-60.546875
2.20703125,-124.51171875,-48.33984375,-51.26953125,-63.4765625
2.2109375,-76.66015625,-51.26953125,-48.33984375,-51.26953125
2.21484375,-72.75390625,-51.7578125,-50.29296875,-14.16015625
2.21875,-114.2578125,-49.8046875,-50.78125,-25.390625
2.22265625,-90.33203125,-46.875,-52.734375,-85.44921875
2.2265625,-101.07421875,-43.9453125,-51.7578125,-85.9375
2.23046875,-127.44140625,-40.52734375,-47.36328125,-55.17578125
2.234375,-88.8671875,-41.9921875,-45.41015625,-56.15234375
2.23828125,-73.73046875,-42.48046875,-50.78125,-94.7265625
2.2421875,-74.70703125,-38.0859375,-50.29296875,-97.16796875
2.24609375,-71.2890625,-41.015625,-48.33984375,-86.42578125
2.25,-85.44921875,-43.45703125,-52.24609375,-69.82421875
2.25390625,-108.88671875,-42.48046875,-50.78125,-48.33984375
2.2578125,-104.00390625,-41.50390625,-46.875,-63.4765625
2.26171875,-96.6796875,-42.48046875,-50.29296875,-78.61328125
2.265625,-97.16796875,-43.45703125,-51.26953125,-76.66015625
2.26953125,-92.28515625,-43.9453125,-52.734375,-92.7734375
2.2734375,-113.28125,-45.41015625,-57.12890625,-89.35546875
2.27734375,-125.48828125,-46.38671875,-56.640625,-44.921875
2.28125,-103.02734375,-48.33984375,-53.22265625,-73.73046875
2.28515625,-83.984375,-45.41015625,-54.19921875,-67.3828125
2.2890625,-139.6484375,-41.9921875,-52.734375,-69.3359375
2.29296875,-105.46875,-42.96875,-52.734375,-82.03125
2.296875,-74.70703125,-41.015625,-57.12890625,-93.75
2.30078125,-109.86328125,-42.96875,-57.6171875,-81.54296875
2.3046875,-98.14453125,-44.43359375,-55.17578125,-43.9453125
2.30859375,-97.65625,-43.45703125,-54.19921875,-70.3125
2.3125,-99.12109375,-45.41015625,-56.640625,-103.02734375
2.31640625,-111.81640625,-50.29296875,-56.640625,-78.125
2.3203125,-139.6484375,-50.78125,-52.24609375,-30.76171875
2.32421875,-83.49609375,-49.31640625,-56.15234375,-62.98828125
2.328125,-26.3671875,-45.41015625,-56.640625,-142.578125
2.33203125,-111.328125,-43.45703125,-51.7578125,-85.44921875
2.3359375,-131.8359375,-46.875,-54.19921875,-56.640625
2.33984375,-118.65234375,-44.921875,-56.15234375,-101.5625
2.34375,-99.12109375,-47.8515625,-57.6171875,-99.12109375
2.34765625,-99.12109375,-45.41015625,-51.26953125,-87.40234375
2.3515625,-96.6796875,-41.015625,-47.8515625,-79.58984375
2.35546875,-89.35546875,-43.45703125,-52.24609375,-73.2421875
2.359375,-98.14453125,-42.96875,-54.6875,-77.1484375
2.36328125,-91.796875,-40.0390625,-54.19921875,-79.58984375
2.3671875,-94.7265625,-38.0859375,-50.29296875,-60.546875
2.37109375,-104.4921875,-42.48046875,-53.22265625,-68.359375
2.375,-97.16796875,-48.33984375,-59.5703125,-85.9375
2.37890625,-93.26171875,-46.875,-56.640625,-93.75
2.3828125,-96.6796875,-41.50390625,-55.6640625,-113.28125
2.38671875,-95.703125,-43.9453125,-60.05859375,-95.21484375
2.390625,-122.0703125,-44.921875,-61.03515625,-49.31640625
2.39453125,-109.86328125,-43.9453125,-56.640625,-32.71484375
2.3984375,-109.86328125,-41.50390625,-58.59375,-77.63671875
2.40234375,-124.51171875,-38.57421875,-62.5,-93.26171875
2.40625,-104.98046875,-40.0390625,-62.5,-93.75
2.41015625,-99.12109375,-41.015625,-60.546875,-125.9765625
2.4140625,-105.46875,-43.45703125,-64.453125,-133.7890625
2.41796875,-125.0,-43.45703125,-65.4296875,-104.98046875
2.421875,-109.86328125,-44.921875,-58.10546875,-89.35546875
2.42578125,-88.8671875,-44.921875,-56.15234375,-93.26171875
2.4296875,-100.09765625,-45.8984375,-58.59375,-83.49609375
2.43359375,-93.75,-52.734375,-55.17578125,-59.08203125
2.4375,-76.66015625,-44.43359375,-50.29296875,-80.56640625
2.44140625,-65.4296875,-40.52734375,-49.31640625,-82.51953125
2.4453125,-84.9609375,-45.8984375,-50.78125,-72.265625
2.44921875,-103.515625,-43.45703125,-55.17578125,-99.12109375
2.453125,-75.1953125,-43.9453125,-59.5703125,-107.421875
2.45703125,-90.8203125,-44.43359375,-54.19921875,-102.05078125
2.4609375,-104.98046875,-41.9921875,-50.78125,-108.88671875
2.46484375,-91.30859375,-42.96875,-52.734375,-117.67578125
2.46875,-88.37890625,-45.8984375,-52.734375,-98.6328125
2.47265625,-90.8203125,-47.8515625,-53.22265625,-90.8203125
2.4765625,-81.0546875,-44.43359375,-52.734375,-92.28515625
2.48046875,-90.33203125,-44.43359375,-54.6875,-119.62890625
2.484375,-96.19140625,-46.875,-52.734375,-128.41796875
2.48828125,-110.83984375,-40.0390625,-51.7578125,-96.19140625
2.4921875,-117.1875,-41.015625,-52.734375,-98.6328125
2.49609375,-77.1484375,-41.9921875,-52.24609375,-102.05078125
2.5,-97.65625,-39.55078125,-54.6875,-90.33203125
2.50390625,-109.86328125,-41.015625,-54.19921875,-109.86328125
2.5078125,-90.33203125,-37.59765625,-56.640625,-121.09375
2.51171875,-109.375,-40.0390625,-57.6171875,-110.83984375
2.515625,-104.00390625,-43.9453125,-55.6640625,-119.140625
2.51953125,-90.8203125,-45.8984375,-53.7109375,-97.65625
2.5234375,-101.5625,-46.38671875,-53.7109375,-74.70703125
2.52734375,-87.40234375,-46.875,-56.15234375,-93.26171875
2.53125,-89.35546875,-46.38671875,-55.17578125,-126.953125
2.53515625,-106.4453125,-45.41015625,-56.640625,-119.62890625
2.5390625,-84.47265625,-47.36328125,-61.03515625,-105.46875
2.54296875,-90.33203125,-44.921875,-62.5,-118.65234375
2.546875,-108.3984375,-41.015625,-56.640625,-89.35546875
2.55078125,-83.0078125,-37.109375,-49.31640625,-72.75390625
2.5546875,-75.1953125,-41.015625,-53.7109375,-104.00390625
2.55859375,-100.5859375,-47.8515625,-54.6875,-111.328125
2.5625,-85.44921875,-47.36328125,-50.29296875,-107.421875
2.56640625,-78.61328125,-40.52734375,-46.38671875,-106.93359375
2.5703125,-94.7265625,-36.62109375,-50.29296875,-101.07421875
2.57421875,-95.703125,-36.62109375,-54.6875,-75.1953125
2.578125,-94.23828125,-36.62109375,-54.19921875,-108.88671875
2.58203125,-67.87109375,-34.66796875,-52.734375,-119.62890625
2.5859375,-78.61328125,-32.71484375,-48.828125,-91.30859375
2.58984375,-108.3984375,-36.62109375,-51.7578125,-105.95703125
2.59375,-77.63671875,-41.015625,-54.19921875,-103.02734375
2.59765625,-77.63671875,-36.62109375,-48.828125,-80.56640625
2.6015625,-92.7734375,-32.2265625,-50.29296875,-79.1015625
2.60546875,-85.9375,-36.62109375,-53.7109375,-90.8203125
2.609375,-59.5703125,-39.0625,-47.8515625,-90.8203125
2.61328125,-82.03125,-37.59765625,-42.96875,-95.21484375
2.6171875,-98.14453125,-40.0390625,-48.33984375,-96.19140625
2.62109375,-96.6796875,-41.50390625,-52.734375,-78.125
2.625,-92.7734375,-39.55078125,-47.8515625,-75.1953125
2.62890625,-69.3359375,-38.0859375,-45.41015625,-90.8203125
2.6328125,-56.15234375,-37.59765625,-48.828125,-93.75
2.63671875,-86.42578125,-37.59765625,-47.36328125,-64.94140625
2.640625,-92.7734375,-39.55078125,-45.8984375,-70.80078125
2.64453125,-89.84375,-37.59765625,-49.31640625,-83.984375
2.6484375,-102.5390625,-39.0625,-47.8515625,-83.49609375
2.65234375,-73.73046875,-47.8515625,-49.8046875,-97.65625
2.65625,-85.44921875,-51.7578125,-48.828125,-88.8671875
2.66015625,-92.28515625,-47.36328125,-44.921875,-85.9375
2.6640625,-71.77734375,-44.921875,-42.96875,-103.515625
2.66796875,-85.9375,-42.96875,-42.48046875,-112.3046875
2.671875,-82.03125,-44.43359375,-48.828125,-61.03515625
2.67578125,-80.56640625,-46.38671875,-49.8046875,-39.55078125
2.6796875,-79.58984375,-46.875,-42.48046875,-47.36328125
2.68359375,-23.92578125,-44.921875,-37.109375,-48.33984375
2.6875,-89.84375,-41.015625,-51.7578125,-100.09765625
2.69140625,-118.1640625,-38.0859375,-57.12890625,-116.2109375
2.6953125,-95.703125,-40.52734375,-54.6875,-119.140625
2.69921875,-87.890625,-36.62109375,-52.734375,-118.1640625
2.703125,-59.5703125,-31.25,-45.41015625,-77.1484375
2.70703125,-99.12109375,-33.203125,-50.29296875,-96.19140625
2.7109375,-110.3515625,-32.2265625,-57.6171875,-126.953125
2.71484375,-71.2890625,-31.73828125,-55.17578125,-104.98046875
2.71875,-100.5859375,-34.1796875,-50.78125,-94.23828125
2.72265625,-77.63671875,-32.2265625,-48.828125,-106.93359375
2.7265625,-61.5234375,-27.83203125,-52.734375,-99.12109375
2.73046875,-91.796875,-30.76171875,-57.12890625,-83.49609375
2.734375,-90.8203125,-38.57421875,-57.6171875,-103.02734375
2.73828125,-83.984375,-36.62109375,-60.546875,-121.58203125
2.7421875,-67.3828125,-33.203125,-62.5,-107.91015625
2.74609375,-84.47265625,-25.390625,-57.6171875,-122.0703125
2.75,-94.7265625,-23.4375,-53.22265625,-126.953125
2.75390625,-90.8203125,-26.3671875,-50.78125,-98.6328125
2.7578125,-99.609375,-31.25,-51.26953125,-42.48046875
2.76171875,-78.125,-33.203125,-54.6875,-61.5234375
2.765625,-71.77734375,-33.69140625,-60.546875,-122.0703125
2.76953125,-79.58984375,-37.109375,-54.19921875,-97.65625
2.7734375,-73.73046875,-37.59765625,-46.875,-82.03125
2.77734375,-55.6640625,-39.55078125,-50.29296875,-94.23828125
2.78125,-74.70703125,-40.0390625,-56.640625,-67.3828125
2.78515625,-74.70703125,-36.1328125,-58.10546875,-64.94140625
2.7890625,-86.42578125,-35.64453125,-57.6171875,-88.8671875
2.79296875,-103.02734375,-41.015625,-59.08203125,-81.54296875
2.796875,-67.87109375,-39.55078125,-56.15234375,-81.0546875
2.80078125,-68.84765625,-36.1328125,-53.7109375,-80.56640625
2.8046875,-124.0234375,-40.52734375,-55.6640625,-66.89453125
2.80859375,-77.63671875,-44.921875,-53.7109375,-58.10546875
2.8125,-21.97265625,-41.9921875,-51.26953125,-90.33203125
2.81640625,-67.3828125,-39.0625,-52.24609375,-84.47265625
2.8203125,-82.03125,-38.0859375,-52.734375,-76.66015625
2.82421875,-58.59375,-38.0859375,-50.78125,-80.078125
2.828125,-41.9921875,-39.55078125,-55.6640625,-55.6640625
2.83203125,-68.84765625,-39.0625,-58.59375,-87.890625
2.8359375,-83.0078125,-34.1796875,-52.24609375,-107.421875
2.83984375,-59.08203125,-30.76171875,-52.734375,-77.1484375
2.84375,-62.98828125,-31.25,-49.31640625,-88.37890625
2.84765625,-88.37890625,-32.71484375,-48.33984375,-91.30859375
2.8515625,-68.84765625,-35.15625,-52.734375,-85.44921875
2.85546875,-51.26953125,-37.59765625,-54.19921875,-79.58984375
2.859375,-108.3984375,-38.57421875,-51.7578125,-51.7578125
2.86328125,-86.42578125,-41.015625,-52.24609375,-56.640625
2.8671875,-85.9375,-39.55078125,-51.26953125,-111.81640625
2.87109375,-101.5625,-37.59765625,-55.17578125,-144.04296875
2.875,-78.61328125,-40.0390625,-62.01171875,-98.14453125
2.87890625,-72.75390625,-42.48046875,-62.5,-82.03125
2.8828125,-71.2890625,-44.43359375,-61.03515625,-110.3515625
2.88671875,-95.703125,-41.9921875,-62.5,-102.05078125
2.890625,-80.56640625,-40.0390625,-63.96484375,-58.59375
2.89453125,-66.40625,-38.57421875,-58.59375,-62.01171875
2.8984375,-72.265625,-36.1328125,-55.17578125,-95.21484375
2.90234375,-74.21875,-36.1328125,-54.6875,-90.33203125
2.90625,-77.1484375,-36.1328125,-54.6875,-93.26171875
2.91015625,-86.42578125,-35.64453125,-50.78125,-96.6796875
2.9140625,-88.37890625,-35.64453125,-43.9453125,-84.9609375
2.91796875,-83.49609375,-32.71484375,-47.36328125,-90.8203125
2.921875,-78.125,-36.1328125,-51.7578125,-89.35546875
2.92578125,-48.33984375,-37.59765625,-43.9453125,-43.9453125
2.9296875,-81.0546875,-40.0390625,-47.36328125,-59.5703125
2.93359375,-102.05078125,-42.96875,-52.734375,-95.21484375
2.9375,-97.16796875,-42.96875,-49.8046875,-76.66015625
2.94140625,-103.515625,-42.96875,-49.31640625,-86.9140625
2.9453125,-91.796875,-41.015625,-50.78125,-91.30859375
2.94921875,-78.125,-41.50390625,-54.6875,-96.19140625
2.953125,-67.87109375,-42.96875,-54.19921875,-91.30859375
2.95703125,-51.7578125,-40.0390625,-52.734375,-64.94140625
2.9609375,-31.25,-35.64453125,-52.24609375,-61.03515625
2.96484375,-72.265625,-40.0390625,-49.31640625,-67.3828125
2.96875,-86.42578125,-38.57421875,-46.875,-57.12890625
2.97265625,-54.6875,-36.1328125,-43.9453125,-13.18359375
2.9765625,-34.1796875,-34.66796875,-47.8515625,-52.24609375
2.98046875,-23.4375,-34.1796875,-48.33984375,-86.42578125
2.984375,-50.29296875,-36.62109375,-43.9453125,-69.82421875
2.98828125,-53.22265625,-29.78515625,-44.43359375,-72.265625
2.9921875,-53.22265625,-28.3203125,-51.7578125,-65.91796875
2.99609375,-57.6171875,-33.69140625,-46.38671875,-66.40625
3.0,-45.41015625,-35.15625,-42.48046875,-67.87109375
3.00390625,-49.31640625,-35.15625,-46.875,-65.91796875
3.0078125,-56.15234375,-36.1328125,-49.31640625,-58.10546875
3.01171875,-46.38671875,-38.57421875,-50.78125,-65.91796875
3.015625,-66.89453125,-37.109375,-49.31640625,-68.84765625
3.01953125,-64.453125,-32.2265625,-46.38671875,-58.10546875
3.0234375,-62.01171875,-33.69140625,-44.43359375,-34.66796875
3.02734375,-60.546875,-32.71484375,-39.55078125,-43.45703125
3.03125,-58.10546875,-31.25,-41.015625,-76.66015625
3.03515625,-66.89453125,-27.83203125,-41.50390625,-70.80078125
3.0390625,-47.36328125,-25.87890625,-41.015625,-69.3359375
3.04296875,-37.109375,-24.90234375,-40.0390625,-56.15234375
3.046875,-68.84765625,-22.94921875,-42.48046875,-61.5234375
3.05078125,-75.68359375,-26.85546875,-42.48046875,-71.77734375
3.0546875,-85.44921875,-27.34375,-40.0390625,-91.30859375
3.05859375,-99.609375,-29.78515625,-40.0390625,-107.421875
3.0625,-102.5390625,-25.87890625,-42.48046875,-103.515625
3.06640625,-96.6796875,-20.01953125,-41.9921875,-56.640625
3.0703125,-41.9921875,-22.94921875,-43.45703125,-50.78125
3.07421875,-39.0625,-27.34375,-41.9921875,-100.09765625
3.078125,-80.56640625,-28.80859375,-44.43359375,-136.23046875
3.08203125,-100.5859375,-29.296875,-54.19921875,-131.8359375
3.0859375,-99.12109375,-29.78515625,-54.19921875,-97.65625
3.08984375,-73.2421875,-26.85546875,-55.17578125,-88.37890625
3.09375,-77.63671875,-28.80859375,-58.59375,-81.54296875
3.09765625,-74.70703125,-30.2734375,-59.5703125,-84.47265625
3.1015625,-44.921875,-28.80859375,-57.12890625,-81.0546875
3.10546875,-67.3828125,-32.2265625,-52.24609375,-41.015625
3.109375,-103.515625,-31.25,-50.29296875,-67.87109375
3.11328125,-35.64453125,-31.25,-50.29296875,-132.32421875
3.1171875,-43.45703125,-38.57421875,-53.22265625,-91.30859375
3.12109375,-88.37890625,-40.52734375,-50.78125,-72.265625
3.125,-67.87109375,-40.52734375,-49.31640625,-86.9140625
3.12890625,-71.2890625,-34.66796875,-50.29296875,-91.796875
3.1328125,-82.51953125,-34.66796875,-50.29296875,-93.75
3.13671875,-51.7578125,-45.41015625,-51.26953125,-77.1484375
3.140625,-56.640625,-41.015625,-49.8046875,-55.6640625
3.14453125,-74.70703125,-38.0859375,-50.29296875,-63.96484375
3.1484375,-77.1484375,-42.48046875,-54.19921875,-77.63671875
3.15234375,-46.875,-41.50390625,-54.19921875,-60.05859375
3.15625,-45.8984375,-41.9921875,-55.6640625,-58.59375
3.16015625,-83.0078125,-38.0859375,-53.22265625,-57.6171875
3.1640625,-76.66015625,-36.1328125,-52.24609375,-94.23828125
3.16796875,-70.80078125,-32.71484375,-52.734375,-109.375
3.171875,-67.87109375,-31.25,-52.24609375,-76.66015625
3.17578125,-60.546875,-38.57421875,-52.734375,-77.1484375
3.1796875,-65.4296875,-36.62109375,-53.22265625,-96.19140625
3.18359375,-66.89453125,-32.2265625,-51.7578125,-101.07421875
3.1875,-58.10546875,-32.2265625,-43.9453125,-80.078125
3.19140625,-49.8046875,-31.25,-46.38671875,-82.51953125
3.1953125,-68.84765625,-33.69140625,-52.734375,-88.8671875
3.19921875,-59.08203125,-35.15625,-53.22265625,-72.75390625
3.203125,-86.42578125,-35.64453125,-53.22265625,-72.75390625
3.20703125,-100.09765625,-38.57421875,-52.24609375,-84.47265625
3.2109375,-53.22265625,-35.15625,-49.31640625,-101.5625
3.21484375,-68.359375,-34.1796875,-50.78125,-55.6640625
3.21875,-102.05078125,-33.203125,-55.17578125,-72.75390625
3.22265625,-83.984375,-28.80859375,-48.33984375,-139.6484375
3.2265625,-77.63671875,-28.3203125,-46.38671875,-116.69921875
3.23046875,-113.28125,-33.203125,-48.828125,-94.23828125
3.234375,-138.671875,-37.59765625,-50.29296875,-119.62890625
3.23828125,-116.69921875,-33.69140625,-43.45703125,-127.44140625
3.2421875,-133.7890625,-34.66796875,-40.0390625,-132.32421875
3.24609375,-138.671875,-36.62109375,-41.015625,-163.0859375
3.25,-144.53125,-38.0859375,-41.50390625,-181.15234375
3.25390625,-174.8046875,-43.45703125,-42.48046875,-191.89453125
3.2578125,-170.8984375,-38.0859375,-45.41015625,-185.546875
3.26171875,-160.15625,-28.80859375,-46.875,-176.7578125
3.265625,-155.2734375,-28.3203125,-45.41015625,-193.84765625
3.26953125,-152.83203125,-26.85546875,-43.9453125,-177.734375
3.2734375,-150.390625,-25.87890625,-44.921875,-148.4375
3.27734375,-126.46484375,-24.4140625,-44.921875,-140.625
3.28125,-119.62890625,-27.34375,-41.015625,-138.18359375
3.28515625,-102.05078125,-30.2734375,-45.8984375,-133.30078125
3.2890625,-78.61328125,-30.2734375,-48.33984375,-117.1875
3.29296875,-113.28125,-31.25,-46.875,-98.6328125
3.296875,-92.28515625,-33.69140625,-50.29296875,-102.5390625
3.30078125,-62.98828125,-30.76171875,-51.7578125,-106.4453125
3.3046875,-70.80078125,-26.85546875,-49.8046875,-86.42578125
3.30859375,-43.9453125,-24.90234375,-48.33984375,-72.265625
3.3125,-47.8515625,-25.390625,-49.8046875,-75.1953125
3.31640625,-50.29296875,-30.2734375,-53.22265625,-102.5390625
3.3203125,-24.4140625,-33.69140625,-52.734375,-84.47265625
3.32421875,-33.69140625,-32.2265625,-50.78125,-55.6640625
3.328125,-57.6171875,-31.73828125,-49.31640625,-69.82421875
3.33203125,-27.34375,-31.73828125,-47.36328125,-79.58984375
3.3359375,-22.94921875,-34.66796875,-49.31640625,-77.1484375
3.33984375,-41.9921875,-37.109375,-51.26953125,-82.03125
3.34375,-28.3203125,-35.15625,-54.6875,-62.5
3.34765625,-11.23046875,-37.59765625,-55.17578125,-66.89453125
3.3515625,-18.5546875,-43.45703125,-53.7109375,-53.7109375
3.35546875,-23.92578125,-43.45703125,-54.6875,-14.6484375
3.359375,1.46484375,-40.0390625,-55.6640625,-20.5078125
3.36328125,-16.6015625,-37.109375,-54.19921875,-35.15625
3.3671875,-56.640625,-34.1796875,-50.78125,-49.8046875
3.37109375,-4.8828125,-36.62109375,-52.24609375,-52.734375
3.375,-6.8359375,-36.1328125,-48.828125,-47.36328125
3.37890625,-17.08984375,-32.2265625,-48.33984375,-49.31640625
3.3828125,1.953125,-33.69140625,-47.36328125,-26.85546875
3.38671875,-7.32421875,-34.66796875,-43.9453125,-34.1796875
3.390625,-25.87890625,-37.59765625,-47.8515625,-41.9921875
3.39453125,-16.11328125,-36.62109375,-50.78125,-7.8125
3.3984375,4.8828125,-34.1796875,-46.875,-32.71484375
3.40234375,1.46484375,-32.71484375,-46.38671875,-55.6640625
3.40625,-3.41796875,-29.296875,-48.828125,-41.9921875
3.41015625,-10.7421875,-29.296875,-46.875,-35.64453125
3.4140625,16.11328125,-34.1796875,-47.36328125,-23.92578125
3.41796875,33.69140625,-32.71484375,-43.45703125,-34.1796875
3.421875,-2.9296875,-34.1796875,-44.921875,-38.0859375
3.42578125,-37.59765625,-34.1796875,-51.26953125,-51.26953125
3.4296875,-45.41015625,-28.3203125,-48.828125,-36.1328125
3.43359375,-1.46484375,-33.203125,-43.45703125,27.34375
3.4375,5.859375,-37.109375,-44.921875,-17.578125
3.44140625,-6.34765625,-33.69140625,-47.36328125,-48.33984375
3.4453125,-6.8359375,-31.73828125,-49.8046875,-63.4765625
3.44921875,7.8125,-31.25,-50.29296875,-68.359375
3.453125,7.32421875,-25.87890625,-52.24609375,-47.36328125
3.45703125,-34.1796875,-30.2734375,-54.6875,-43.45703125
3.4609375,-37.109375,-36.62109375,-51.26953125,-46.875
3.46484375,-3.41796875,-31.73828125,-44.43359375,-41.9921875
3.46875,-3.90625,-26.3671875,-41.9921875,-20.99609375
3.47265625,-17.578125,-25.390625,-40.0390625,-17.578125
3.4765625,-14.6484375,-27.83203125,-41.9921875,-41.9921875
3.48046875,-16.6015625,-28.3203125,-44.43359375,-49.8046875
3.484375,-8.30078125,-24.90234375,-41.50390625,-48.33984375
3.48828125,4.8828125,-19.53125,-38.0859375,-42.96875
3.4921875,4.39453125,-25.390625,-41.50390625,-25.390625
3.49609375,-1.953125,-29.78515625,-46.38671875,-48.33984375
3.5,-14.16015625,-28.80859375,-42.96875,-11.71875
3.50390625,-33.69140625,-27.83203125,-41.50390625,-10.25390625
3.5078125,-28.80859375,-30.76171875,-47.8515625,-50.78125
3.51171875,-25.390625,-38.57421875,-50.29296875,-63.96484375
3.515625,-46.38671875,-36.1328125,-47.36328125,-60.546875
3.51953125,-8.7890625,-31.73828125,-46.38671875,-41.50390625
3.5234375,-2.44140625,-28.80859375,-46.875,-34.1796875
3.52734375,-32.2265625,-25.87890625,-42.48046875,-32.2265625
3.53125,-35.64453125,-26.85546875,-41.9921875,-47.36328125
3.53515625,-14.6484375,-31.25,-49.31640625,-36.1328125
3.5390625,12.20703125,-36.1328125,-55.6640625,-38.57421875
3.54296875,-8.30078125,-39.55078125,-57.12890625,-52.24609375
3.546875,-40.52734375,-43.9453125,-58.10546875,-51.26953125
3.55078125,-41.50390625,-41.9921875,-52.24609375,-54.6875
3.5546875,-18.06640625,-38.0859375,-45.41015625,-28.3203125
3.55859375,-27.83203125,-37.59765625,-46.38671875,-44.43359375
3.5625,-40.52734375,-38.0859375,-47.8515625,-45.41015625
3.56640625,-21.97265625,-38.57421875,-45.8984375,-50.29296875
3.5703125,-37.109375,-35.15625,-43.45703125,-59.08203125
3.57421875,-44.921875,-36.62109375,-44.43359375,-36.1328125
3.578125,-22.94921875,-34.66796875,-44.921875,-38.0859375
3.58203125,-27.34375,-31.25,-42.96875,-51.26953125
3.5859375,-22.94921875,-35.15625,-44.43359375,-66.89453125
3.58984375,11.23046875,-36.62109375,-48.33984375,-37.109375
3.59375,-7.32421875,-41.015625,-46.875,-0.9765625
3.59765625,-30.76171875,-42.96875,-45.41015625,-48.828125
3.6015625,-23.4375,-42.96875,-47.8515625,-56.15234375
3.60546875,-25.390625,-40.0390625,-45.41015625,-40.52734375
3.609375,-42.48046875,-35.64453125,-41.015625,-40.0390625
3.61328125,-46.875,-38.0859375,-45.41015625,-47.36328125
3.6171875,-53.22265625,-36.62109375,-49.8046875,-62.98828125
3.62109375,-43.9453125,-32.71484375,-44.921875,-29.296875
3.625,-22.4609375,-30.76171875,-43.9453125,-33.69140625
3.62890625,-38.57421875,-36.1328125,-46.38671875,-68.359375
3.6328125,-27.34375,-41.015625,-44.921875,-58.10546875
3.63671875,-8.30078125,-44.921875,-47.36328125,-47.8515625
3.640625,-16.6015625,-43.45703125,-46.875,-22.4609375
3.64453125,-19.53125,-36.62109375,-42.48046875,-12.6953125
3.6484375,-28.3203125,-36.1328125,-41.015625,-49.31640625
3.65234375,-30.76171875,-37.59765625,-42.96875,-69.82421875
3.65625,-28.3203125,-35.64453125,-40.52734375,-41.50390625
3.66015625,-17.08984375,-38.57421875,-37.109375,-50.29296875
3.6640625,-5.859375,-41.50390625,-38.57421875,-56.640625
3.66796875,-31.73828125,-45.41015625,-40.0390625,-45.41015625
3.671875,-57.6171875,-50.78125,-41.50390625,-73.73046875
3.67578125,-43.45703125,-48.828125,-41.015625,-71.2890625
3.6796875,-28.80859375,-43.45703125,-42.96875,-89.84375
3.68359375,-46.875,-43.9453125,-48.33984375,-106.93359375
3.6875,-49.31640625,-48.828125,-51.7578125,-74.70703125
3.69140625,-41.015625,-49.31640625,-52.734375,-87.890625
3.6953125,-14.16015625,-48.828125,-49.8046875,-120.1171875
3.69921875,-18.5546875,-46.875,-50.78125,-101.5625
3.703125,-37.109375,-44.921875,-57.6171875,-102.5390625
3.70703125,-31.73828125,-43.9453125,-56.640625,-95.703125
3.7109375,-45.41015625,-42.96875,-53.22265625,-83.49609375
3.71484375,-46.875,-38.0859375,-49.8046875,-96.6796875
3.71875,-6.34765625,-33.203125,-47.8515625,-73.73046875
3.72265625,-16.6015625,-34.1796875,-46.875,-77.63671875
3.7265625,-24.90234375,-37.59765625,-45.8984375,-97.65625
3.73046875,-13.671875,-35.64453125,-50.78125,-83.984375
3.734375,-17.08984375,-39.55078125,-51.7578125,-87.890625
3.73828125,-67.3828125,-42.96875,-56.640625,-90.8203125
3.7421875,-37.109375,-39.55078125,-53.22265625,-35.15625
3.74609375,-8.7890625,-42.96875,-47.36328125,-63.4765625
3.75,-40.52734375,-46.38671875,-50.29296875,-115.72265625
3.75390625,-34.66796875,-44.43359375,-53.22265625,-88.8671875
3.7578125,0.0,-45.41015625,-56.640625,-75.1953125
3.76171875,-25.87890625,-51.26953125,-58.10546875,-72.75390625
3.765625,-34.66796875,-55.17578125,-56.640625,-75.68359375
3.76953125,-30.2734375,-48.828125,-53.22265625,-80.078125
3.7734375,-40.52734375,-50.29296875,-52.24609375,-77.1484375
3.77734375,-31.73828125,-58.59375,-51.7578125,-71.2890625
3.78125,-33.69140625,-53.22265625,-55.6640625,-76.171875
3.78515625,-39.55078125,-43.9453125,-58.10546875,-55.17578125
3.7890625,-26.85546875,-46.875,-58.10546875,-53.22265625
3.79296875,-26.3671875,-52.24609375,-53.7109375,-60.05859375
3.796875,-25.87890625,-52.734375,-48.828125,-64.94140625
3.80078125,-10.7421875,-53.7109375,-52.24609375,-45.41015625
3.8046875,2.44140625,-56.640625,-55.17578125,-14.16015625
3.80859375,3.41796875,-59.08203125,-57.6171875,-57.12890625
3.8125,-67.87109375,-59.08203125,-56.640625,-107.91015625
3.81640625,-57.6171875,-54.19921875,-54.19921875,-77.63671875
3.8203125,-35.15625,-49.31640625,-57.12890625,-56.15234375
3.82421875,-32.71484375,-47.8515625,-58.10546875,-66.40625
3.828125,-34.1796875,-47.8515625,-50.29296875,-60.546875
3.83203125,-36.62109375,-50.78125,-48.33984375,-55.17578125
3.8359375,-24.4140625,-55.17578125,-51.26953125,-68.84765625
3.83984375,-29.296875,-52.734375,-49.8046875,-62.01171875
3.84375,-36.62109375,-51.26953125,-54.6875,-47.36328125
3.84765625,-36.1328125,-46.38671875,-54.19921875,-48.828125
3.8515625,-39.55078125,-41.9921875,-48.33984375,-66.89453125
3.85546875,-33.203125,-45.8984375,-52.734375,-53.7109375
3.859375,-41.9921875,-47.8515625,-55.6640625,-15.13671875
3.86328125,-29.296875,-44.921875,-54.6875,-58.59375
3.8671875,-40.0390625,-47.36328125,-53.7109375,-82.51953125
3.87109375,-36.1328125,-46.38671875,-51.7578125,-67.87109375
3.875,-11.71875,-41.9921875,-48.828125,-69.82421875
3.87890625,-35.15625,-40.0390625,-45.8984375,-70.80078125
3.8828125,-34.1796875,-40.52734375,-44.43359375,-52.24609375
3.88671875,-31.25,-43.45703125,-47.36328125,-43.45703125
3.890625,-27.83203125,-46.875,-53.7109375,-56.15234375
3.89453125,-36.62109375,-45.8984375,-52.734375,-58.10546875
3.8984375,-50.78125,-42.48046875,-49.31640625,-60.546875
3.90234375,-71.2890625,-40.0390625,-49.31640625,-51.26953125
3.90625,-66.40625,-43.9453125,-52.734375,-38.57421875
3.91015625,-44.43359375,-45.41015625,-53.22265625,-38.57421875
3.9140625,-40.52734375,-45.8984375,-51.7578125,-38.57421875
3.91796875,-35.15625,-45.8984375,-50.78125,-28.80859375
3.921875,-72.75390625,-42.48046875,-48.828125,-39.0625
3.92578125,-83.49609375,-43.9453125,-41.50390625,-31.25
3.9296875,-62.01171875,-44.921875,-42.48046875,-57.6171875
3.93359375,-53.22265625,-42.96875,-45.8984375,-67.3828125
3.9375,-54.19921875,-38.0859375,-38.57421875,-36.62109375
3.94140625,-45.8984375,-34.1796875,-37.59765625,-45.41015625
3.9453125,-22.94921875,-41.015625,-45.8984375,-63.4765625
3.94921875,-41.50390625,-42.96875,-50.29296875,-63.4765625
3.953125,-70.3125,-38.0859375,-50.29296875,-49.31640625
3.95703125,-57.6171875,-36.1328125,-46.875,-40.52734375
3.9609375,-42.96875,-37.59765625,-45.41015625,-47.36328125
3.96484375,-43.45703125,-41.9921875,-50.78125,-24.90234375
3.96875,-53.22265625,-42.48046875,-48.33984375,-37.59765625
3.97265625,-58.59375,-40.0390625,-45.41015625,-61.5234375
3.9765625,-43.9453125,-42.96875,-47.8515625,-62.5
3.98046875,-40.0390625,-42.48046875,-47.8515625,-62.98828125
3.984375,-47.8515625,-38.0859375,-49.8046875,-51.7578125
3.98828125,-29.78515625,-37.109375,-56.15234375,-36.62109375
3.9921875,-17.578125,-41.015625,-54.6875,-15.625
3.99609375,-7.8125,-46.38671875,-41.50390625,-14.16015625
4.0,-41.50390625,-46.875,-38.57421875,-29.78515625
4.00390625,-78.125,-46.38671875,-41.50390625,-37.109375
4.0078125,-64.453125,-46.875,-42.48046875,-20.5078125
4.01171875,-43.9453125,-47.36328125,-38.0859375,-16.11328125
4.015625,-26.3671875,-49.31640625,-34.66796875,-24.90234375
4.01953125,-29.78515625,-49.31640625,-36.1328125,-19.04296875
4.0234375,-47.8515625,-51.26953125,-37.59765625,-16.6015625
4.02734375,-56.15234375,-56.15234375,-43.45703125,-28.80859375
4.03125,-47.8515625,-51.26953125,-45.41015625,-35.64453125
4.03515625,-26.85546875,-47.8515625,-42.96875,-27.83203125
4.0390625,-3.90625,-48.828125,-39.0625,-20.5078125
4.04296875,-7.32421875,-47.8515625,-40.0390625,-24.90234375
4.046875,-30.2734375,-50.29296875,-42.48046875,-21.484375
4.05078125,-33.69140625,-51.7578125,-37.109375,2.44140625
4.0546875,-30.76171875,-49.8046875,-34.66796875,-5.859375
4.05859375,-21.97265625,-47.36328125,-33.203125,-12.6953125
4.0625,-20.99609375,-43.45703125,-34.1796875,0.48828125
4.06640625,-31.25,-40.52734375,-38.57421875,-26.3671875
4.0703125,-14.6484375,-42.96875,-36.1328125,-22.4609375
4.07421875,-9.765625,-42.48046875,-35.64453125,-18.5546875
4.078125,-30.76171875,-40.52734375,-43.9453125,-34.66796875
4.08203125,-29.296875,-43.9453125,-49.31640625,-24.90234375
4.0859375,-19.04296875,-48.33984375,-50.29296875,-32.2265625
4.08984375,-32.2265625,-43.9453125,-48.828125,-50.78125
4.09375,-31.25,-43.45703125,-46.875,-42.96875
4.09765625,-30.2734375,-45.8984375,-42.96875,-14.6484375
4.1015625,-23.4375,-43.9453125,-41.50390625,-14.16015625
4.10546875,-41.015625,-47.8515625,-45.41015625,-17.08984375
4.109375,-52.734375,-52.734375,-49.31640625,-23.92578125
4.11328125,-27.83203125,-51.7578125,-48.33984375,-36.62109375
4.1171875,-15.625,-45.8984375,-44.43359375,-34.1796875
4.12109375,-39.0625,-41.50390625,-45.41015625,-21.484375
4.125,-47.8515625,-39.0625,-40.52734375,-5.37109375
4.12890625,-38.0859375,-40.52734375,-41.9921875,-29.78515625
4.1328125,-49.8046875,-42.48046875,-46.875,-41.9921875
4.13671875,-40.52734375,-40.0390625,-47.36328125,-20.99609375
4.140625,-3.90625,-43.45703125,-44.921875,-19.04296875
4.14453125,-38.57421875,-41.015625,-42.96875,-57.12890625
4.1484375,-62.01171875,-38.0859375,-44.43359375,-24.90234375
4.15234375,-16.11328125,-40.0390625,-40.52734375,32.2265625
4.15625,-12.6953125,-40.0390625,-38.57421875,-21.97265625
4.16015625,-31.25,-35.64453125,-41.015625,-69.3359375
4.1640625,-34.1796875,-37.59765625,-42.96875,-58.10546875
4.16796875,-40.0390625,-38.57421875,-42.96875,-52.24609375
4.171875,-39.0625,-32.2265625,-41.9921875,-59.5703125
4.17578125,-24.4140625,-32.2265625,-39.0625,-58.10546875
4.1796875,-27.34375,-30.76171875,-38.0859375,-33.203125
4.18359375,-25.87890625,-24.4140625,-36.1328125,-26.85546875
4.1875,-15.13671875,-26.85546875,-32.2265625,-30.2734375
4.19140625,-21.484375,-36.1328125,-33.69140625,-36.62109375
4.1953125,-27.34375,-38.0859375,-40.0390625,-50.78125
4.19921875,-19.53125,-35.64453125,-33.69140625,-11.23046875
4.203125,-6.34765625,-34.1796875,-27.83203125,-8.30078125
4.20703125,-24.4140625,-30.76171875,-32.71484375,-33.69140625
4.2109375,-47.8515625,-33.69140625,-41.015625,-41.015625
4.21484375,-32.71484375,-34.66796875,-45.41015625,-38.0859375
4.21875,-33.203125,-32.71484375,-43.45703125,-40.0390625
4.22265625,-49.8046875,-29.78515625,-41.9921875,-43.45703125
4.2265625,-46.38671875,-31.73828125,-39.55078125,-23.92578125
4.23046875,-37.59765625,-29.296875,-32.2265625,-24.4140625
4.234375,-31.25,-27.34375,-27.83203125,-12.20703125
4.23828125,-34.1796875,-31.25,-29.296875,-7.8125
4.2421875,-36.1328125,-36.1328125,-39.55078125,-47.8515625
4.24609375,-24.4140625,-36.62109375,-41.015625,-26.85546875
4.25,-12.6953125,-35.64453125,-41.9921875,-35.64453125
4.25390625,-25.390625,-36.1328125,-45.41015625,-39.55078125
4.2578125,-47.36328125,-43.9453125,-39.0625,1.953125
4.26171875,-37.59765625,-47.8515625,-33.203125,-9.765625
4.265625,-28.80859375,-41.50390625,-41.50390625,-37.109375
4.26953125,-36.62109375,-39.0625,-45.8984375,-23.92578125
4.2734375,-14.16015625,-39.0625,-47.8515625,-41.015625
4.27734375,-25.390625,-41.015625,-45.41015625,-39.55078125
4.28125,-46.875,-39.55078125,-39.55078125,-29.78515625
4.28515625,-37.109375,-33.69140625,-39.0625,-26.3671875
4.2890625,-41.50390625,-37.109375,-40.0390625,-33.69140625
4.29296875,-49.8046875,-39.55078125,-37.59765625,-24.4140625
4.296875,-24.90234375,-37.59765625,-39.55078125,-5.859375
4.30078125,-20.01953125,-40.0390625,-44.921875,-14.6484375
4.3046875,-14.6484375,-45.41015625,-47.36328125,-20.99609375
4.30859375,22.94921875,-41.50390625,-53.7109375,-25.390625
4.3125,-32.2265625,-35.64453125,-52.24609375,-38.0859375
4.31640625,-33.69140625,-37.59765625,-44.43359375,-54.19921875
4.3203125,-17.08984375,-41.9921875,-44.43359375,-34.66796875
4.32421875,-33.69140625,-43.45703125,-45.8984375,-31.73828125
4.328125,-18.5546875,-48.33984375,-42.48046875,-18.5546875
4.33203125,-20.01953125,-49.31640625,-39.55078125,-19.53125
4.3359375,-17.578125,-49.31640625,-36.62109375,-31.25
4.33984375,-28.80859375,-51.26953125,-38.0859375,-2.9296875
4.34375,-42.48046875,-48.828125,-45.8984375,-24.90234375
4.34765625,-33.203125,-46.875,-42.96875,-58.10546875
4.3515625,-22.4609375,-45.8984375,-44.43359375,-51.26953125
4.35546875,-9.27734375,-42.96875,-46.875,-16.6015625
4.359375,-5.37109375,-42.96875,-40.0390625,7.8125
4.36328125,-20.5078125,-43.45703125,-37.109375,-2.9296875
4.3671875,-31.73828125,-41.015625,-34.1796875,-2.44140625
4.37109375,-15.13671875,-37.59765625,-34.1796875,-12.6953125
4.375,-1.46484375,-38.57421875,-37.109375,-8.30078125
4.37890625,-20.01953125,-41.50390625,-38.0859375,-5.859375
4.3828125,-30.2734375,-41.015625,-34.1796875,-8.7890625
4.38671875,-27.83203125,-41.50390625,-37.109375,-23.92578125
4.390625,-41.9921875,-43.45703125,-45.41015625,-28.3203125
4.39453125,-50.78125,-44.921875,-44.43359375,-21.97265625
4.3984375,-24.4140625,-45.41015625,-40.52734375,-20.5078125
4.40234375,-26.85546875,-42.96875,-36.62109375,-8.30078125
4.40625,-50.78125,-40.0390625,-38.57421875,-18.06640625
4.41015625,-27.34375,-38.57421875,-40.52734375,-22.94921875
4.4140625,-14.16015625,-42.96875,-38.0859375,-22.94921875
4.41796875,-19.04296875,-44.921875,-37.59765625,-34.1796875
4.421875,-23.4375,-47.36328125,-42.48046875,-17.08984375
4.42578125,-37.109375,-44.921875,-41.9921875,-7.32421875
4.4296875,-18.5546875,-41.50390625,-36.1328125,-20.99609375
4.43359375,-0.48828125,-39.55078125,-34.1796875,11.23046875
4.4375,-21.97265625,-37.109375,-34.1796875,17.08984375
4.44140625,-41.015625,-36.62109375,-36.62109375,-18.5546875
4.4453125,-40.0390625,-39.55078125,-38.57421875,-19.53125
4.44921875,-33.69140625,-45.41015625,-42.96875,1.953125
4.453125,-24.90234375,-46.875,-39.55078125,6.8359375
4.45703125,-18.06640625,-41.9921875,-36.62109375,-8.7890625
4.4609375,-32.71484375,-41.50390625,-37.109375,-11.71875
4.46484375,-22.4609375,-45.8984375,-35.15625,-4.39453125
4.46875,-19.53125,-44.43359375,-39.0625,-7.8125
4.47265625,-30.2734375,-41.015625,-38.57421875,-13.18359375
4.4765625,-42.96875,-42.96875,-39.55078125,-14.6484375
4.48046875,-46.38671875,-46.875,-44.43359375,-12.6953125
4.484375,-35.64453125,-47.36328125,-41.9921875,-19.53125
4.48828125,-50.29296875,-46.38671875,-41.9921875,-20.5078125
4.4921875,-56.640625,-48.33984375,-44.43359375,-11.71875
4.49609375,-38.0859375,-50.78125,-44.921875,-28.3203125
4.5,-21.484375,-46.875,-42.96875,-38.57421875
4.50390625,-9.765625,-38.57421875,-41.50390625,-18.06640625
4.5078125,-22.4609375,-41.9921875,-41.9921875,-2.44140625
4.51171875,-34.1796875,-43.45703125,-41.9921875,-11.23046875
4.515625,-19.04296875,-39.55078125,-38.0859375,-8.30078125
4.51953125,-26.85546875,-39.55078125,-38.0859375,-0.48828125
4.5234375,-33.69140625,-45.41015625,-48.33984375,-8.30078125
4.52734375,-33.203125,-48.33984375,-42.96875,-13.671875
4.53125,-41.9921875,-42.48046875,-33.69140625,-23.4375
4.53515625,-35.64453125,-43.9453125,-35.15625,-10.25390625
4.5390625,-39.0625,-48.828125,-43.9453125,-9.27734375
4.54296875,-27.34375,-47.36328125,-47.36328125,-8.30078125
4.546875,-0.9765625,-44.921875,-44.43359375,-22.94921875
4.55078125,-23.92578125,-46.875,-44.921875,-11.71875
4.5546875,-41.9921875,-49.8046875,-41.50390625,12.6953125
4.55859375,-27.83203125,-48.828125,-41.015625,-18.5546875
4.5625,-37.109375,-47.8515625,-42.48046875,-31.25
4.56640625,-51.7578125,-49.8046875,-43.9453125,-26.3671875
4.5703125,-41.50390625,-53.22265625,-44.921875,-26.3671875
4.57421875,-37.109375,-51.7578125,-42.96875,-25.87890625
4.578125,-34.66796875,-44.43359375,-38.57421875,-48.33984375
4.58203125,-40.52734375,-42.48046875,-39.55078125,-31.73828125
4.5859375,-29.78515625,-36.62109375,-42.96875,-13.671875
4.58984375,-21.484375,-34.66796875,-43.45703125,-29.78515625
4.59375,-42.96875,-44.43359375,-39.55078125,-32.2265625
4.59765625,-40.0390625,-42.96875,-34.66796875,-47.36328125
4.6015625,-46.38671875,-39.55078125,-37.109375,-53.22265625
4.60546875,-44.43359375,-38.57421875,-41.50390625,-40.0390625
4.609375,-43.45703125,-40.0390625,-34.66796875,-56.640625
4.61328125,-78.61328125,-37.59765625,-30.2734375,-75.1953125
4.6171875,-98.6328125,-32.2265625,-32.2265625,-70.3125
4.62109375,-115.234375,-36.62109375,-31.25,-79.1015625
4.625,-110.3515625,-37.59765625,-32.71484375,-89.35546875
4.62890625,-94.7265625,-32.2265625,-36.1328125,-95.703125
4.6328125,-115.72265625,-32.2265625,-40.52734375,-106.4453125
4.63671875,-143.5546875,-36.1328125,-44.921875,-117.1875
4.640625,-158.203125,-41.50390625,-44.921875,-127.44140625
4.64453125,-175.29296875,-37.109375,-43.45703125,-134.27734375
4.6484375,-172.36328125,-27.83203125,-47.8515625,-155.2734375
4.65234375,-166.9921875,-26.85546875,-51.26953125,-174.31640625
4.65625,-160.15625,-23.92578125,-53.7109375,-162.59765625
4.66015625,-144.04296875,-18.06640625,-50.29296875,-165.0390625
4.6640625,-154.296875,-20.99609375,-48.828125,-145.5078125
4.66796875,-158.203125,-21.484375,-50.29296875,-165.0390625
4.671875,-125.9765625,-15.13671875,-51.7578125,-186.5234375
4.67578125,-118.1640625,-13.671875,-51.26953125,-152.34375
4.6796875,-124.0234375,-18.5546875,-47.36328125,-140.13671875
4.68359375,-115.72265625,-22.94921875,-49.31640625,-136.23046875
4.6875,-105.46875,-23.92578125,-51.26953125,-107.421875
4.69140625,-85.44921875,-23.4375,-48.828125,-89.84375
4.6953125,-82.51953125,-29.296875,-48.828125,-82.03125
4.69921875,-89.84375,-30.76171875,-52.24609375,-67.3828125
4.703125,-79.58984375,-32.2265625,-53.22265625,-71.77734375
4.70703125,-56.640625,-35.64453125,-46.875,-55.6640625
4.7109375,-42.96875,-31.73828125,-42.96875,-34.66796875
4.71484375,-28.80859375,-28.80859375,-43.45703125,-8.30078125
4.71875,-10.7421875,-29.296875,-40.0390625,3.41796875
4.72265625,-14.16015625,-26.3671875,-39.0625,-15.13671875
4.7265625,-21.97265625,-25.390625,-41.50390625,-12.6953125
4.73046875,-19.53125,-26.3671875,-36.1328125,0.0
4.734375,-11.23046875,-27.83203125,-40.0390625,-19.53125
4.73828125,-4.8828125,-31.73828125,-46.875,5.37109375
4.7421875,-6.8359375,-30.76171875,-47.36328125,34.1796875
4.74609375,-14.16015625,-35.15625,-46.38671875,10.7421875
4.75,-13.671875,-44.921875,-47.36328125,1.953125
4.75390625,-5.37109375,-42.48046875,-47.36328125,6.8359375
4.7578125,-4.8828125,-41.9921875,-48.33984375,16.6015625
4.76171875,2.44140625,-46.38671875,-47.36328125,18.06640625
4.765625,-11.23046875,-46.38671875,-45.41015625,15.625
4.76953125,-15.13671875,-44.43359375,-44.43359375,20.99609375
4.7734375,6.34765625,-43.9453125,-42.48046875,10.7421875
4.77734375,-12.6953125,-49.31640625,-47.8515625,5.859375
4.78125,-14.6484375,-47.8515625,-53.7109375,13.18359375
4.78515625,-5.859375,-36.62109375,-49.31640625,4.39453125
4.7890625,-27.83203125,-33.69140625,-47.36328125,0.48828125
4.79296875,-18.5546875,-38.0859375,-47.8515625,16.11328125
4.796875,-11.23046875,-38.57421875,-50.78125,14.16015625
4.80078125,13.671875,-35.64453125,-44.43359375,16.11328125
4.8046875,31.25,-37.59765625,-41.015625,14.16015625
4.80859375,9.27734375,-43.45703125,-48.828125,14.6484375
4.8125,7.32421875,-41.015625,-52.24609375,7.8125
4.81640625,9.765625,-39.55078125,-52.734375,-4.8828125
4.8203125,18.06640625,-36.1328125,-46.38671875,7.8125
4.82421875,17.578125,-35.15625,-46.38671875,7.32421875
4.828125,-0.9765625,-34.66796875,-49.8046875,0.0
4.83203125,-9.765625,-38.57421875,-49.31640625,-19.53125
4.8359375,-1.953125,-36.1328125,-51.26953125,-12.6953125
4.83984375,3.90625,-33.203125,-50.29296875,13.18359375
4.84375,12.20703125,-33.69140625,-42.48046875,29.78515625
4.84765625,16.6015625,-34.66796875,-45.41015625,30.2734375
4.8515625,-0.9765625,-42.48046875,-50.78125,10.25390625
4.85546875,12.20703125,-47.8515625,-49.8046875,3.90625
4.859375,19.04296875,-48.828125,-46.875,11.23046875
4.86328125,-8.7890625,-46.875,-43.45703125,10.7421875
4.8671875,-0.9765625,-46.38671875,-44.43359375,10.25390625
4.87109375,2.44140625,-49.31640625,-45.41015625,16.11328125
4.875,-15.13671875,-51.7578125,-51.7578125,2.9296875
4.87890625,-3.41796875,-51.7578125,-53.7109375,-18.06640625
4.8828125,11.23046875,-50.78125,-52.24609375,-12.20703125
4.88671875,3.41796875,-49.8046875,-54.19921875,-8.7890625
4.890625,-17.578125,-53.22265625,-53.7109375,-17.08984375
4.89453125,-9.765625,-50.78125,-52.734375,0.48828125
4.8984375,5.859375,-45.41015625,-49.8046875,-3.90625
4.90234375,-19.53125,-45.41015625,-48.33984375,0.48828125
4.90625,-16.11328125,-46.875,-48.33984375,25.390625
4.91015625,10.25390625,-45.8984375,-44.921875,13.18359375
4.9140625,-1.46484375,-45.8984375,-48.828125,-24.90234375
4.91796875,-45.41015625,-41.9921875,-54.19921875,-27.83203125
4.921875,-44.921875,-40.0390625,-50.78125,-8.7890625
4.92578125,-39.0625,-41.50390625,-46.38671875,-12.20703125
4.9296875,-55.17578125,-35.64453125,-44.43359375,-19.53125
4.93359375,-67.3828125,-33.69140625,-42.48046875,-7.32421875
4.9375,-71.77734375,-39.55078125,-42.96875,-5.859375
4.94140625,-67.3828125,-38.57421875,-41.9921875,-11.23046875
4.9453125,-51.26953125,-38.0859375,-44.43359375,-15.13671875
4.94921875,-55.17578125,-38.0859375,-46.38671875,-8.30078125
4.953125,-68.84765625,-33.203125,-44.43359375,-7.8125
4.95703125,-57.12890625,-27.34375,-38.57421875,5.37109375
4.9609375,-55.17578125,-27.34375,-34.66796875,5.37109375
4.96484375,-56.640625,-28.3203125,-41.50390625,-40.52734375
4.96875,-65.4296875,-28.80859375,-42.48046875,-20.01953125
4.97265625,-51.7578125,-28.80859375,-35.64453125,11.23046875
4.9765625,-33.69140625,-26.3671875,-34.66796875,-2.9296875
4.98046875,-41.9921875,-25.390625,-31.73828125,-8.30078125
4.984375,-50.29296875,-28.3203125,-35.15625,-1.953125
4.98828125,-47.8515625,-30.2734375,-40.52734375,1.46484375
4.9921875,-28.80859375,-33.203125,-44.43359375,-3.41796875
4.99609375,-41.50390625,-37.109375,-43.45703125,-10.25390625
5.0,-69.82421875,-38.0859375,-41.9921875,-9.27734375
5.00390625,-29.78515625,-31.25,-47.8515625,-12.6953125
5.0078125,-26.3671875,-30.76171875,-47.36328125,-6.8359375
5.01171875,-64.94140625,-34.1796875,-38.0859375,15.13671875
5.015625,-35.64453125,-33.203125,-37.109375,20.99609375
5.01953125,-15.13671875,-38.57421875,-43.9453125,5.859375
5.0234375,-37.109375,-41.50390625,-49.31640625,-10.25390625
5.02734375,-46.38671875,-34.1796875,-46.875,-20.5078125
5.03125,-45.8984375,-29.296875,-47.8515625,-11.23046875
5.03515625,-31.73828125,-36.1328125,-42.48046875,11.71875
5.0390625,-25.87890625,-43.45703125,-41.50390625,13.671875
5.04296875,-30.2734375,-44.43359375,-44.43359375,6.8359375
5.046875,-39.0625,-43.45703125,-46.875,0.0
5.05078125,-49.8046875,-44.921875,-50.78125,0.0
5.0546875,-71.77734375,-45.41015625,-48.828125,8.30078125
5.05859375,-75.68359375,-44.43359375,-42.48046875,7.8125
5.0625,-61.03515625,-44.43359375,-44.43359375,-2.9296875
5.06640625,-52.734375,-41.015625,-44.43359375,-3.41796875
5.0703125,-45.8984375,-39.0625,-42.48046875,-1.953125
5.07421875,-48.828125,-42.96875,-40.52734375,20.5078125
5.078125,-62.01171875,-45.8984375,-38.57421875,18.5546875
5.08203125,-55.6640625,-41.9921875,-41.50390625,4.8828125
5.0859375,-49.31640625,-38.0859375,-43.9453125,21.484375
5.08984375,-54.6875,-40.0390625,-42.96875,30.2734375
5.09375,-40.52734375,-43.45703125,-45.8984375,39.0625
5.09765625,-52.24609375,-39.55078125,-46.875,55.17578125
5.1015625,-60.546875,-36.1328125,-42.48046875,37.59765625
5.10546875,-43.45703125,-36.1328125,-35.64453125,34.1796875
5.109375,-52.734375,-35.64453125,-33.69140625,41.9921875
5.11328125,-41.50390625,-32.71484375,-38.0859375,34.66796875
5.1171875,-31.73828125,-32.71484375,-38.0859375,42.96875
5.12109375,-44.921875,-34.66796875,-38.57421875,52.24609375
5.125,-28.80859375,-33.203125,-40.52734375,33.69140625
5.12890625,4.8828125,-30.2734375,-36.1328125,28.80859375
5.1328125,-13.18359375,-30.76171875,-36.62109375,22.94921875
5.13671875,-50.29296875,-32.71484375,-40.52734375,16.11328125
5.140625,-29.296875,-37.109375,-45.41015625,29.296875
5.14453125,-23.4375,-41.50390625,-45.8984375,20.5078125
5.1484375,-22.4609375,-32.71484375,-40.0390625,4.8828125
5.15234375,-8.30078125,-25.87890625,-37.109375,33.69140625
5.15625,-13.671875,-26.3671875,-36.1328125,32.2265625
5.16015625,-17.578125,-27.34375,-34.66796875,16.6015625
5.1640625,-19.53125,-30.76171875,-40.52734375,12.6953125
5.16796875,-21.484375,-28.80859375,-39.0625,11.23046875
5.171875,-13.671875,-26.3671875,-37.109375,22.4609375
5.17578125,-10.7421875,-27.34375,-40.0390625,37.59765625
5.1796875,-22.94921875,-32.71484375,-39.55078125,19.53125
5.18359375,-25.390625,-36.1328125,-36.62109375,-20.5078125
5.1875,-39.0625,-38.0859375,-34.1796875,-20.99609375
5.19140625,-44.43359375,-40.52734375,-33.203125,-17.578125
5.1953125,-36.1328125,-36.62109375,-34.66796875,-18.5546875
5.19921875,-36.62109375,-35.64453125,-35.64453125,-19.53125
5.203125,-27.83203125,-44.921875,-36.62109375,-28.80859375
5.20703125,-12.20703125,-46.38671875,-40.52734375,-26.3671875
5.2109375,-4.8828125,-42.96875,-38.0859375,-16.6015625
5.21484375,-16.11328125,-47.36328125,-38.0859375,0.9765625
5.21875,-13.671875,-45.41015625,-37.109375,9.765625
5.22265625,-15.625,-43.9453125,-39.55078125,-5.859375
5.2265625,-10.25390625,-47.8515625,-39.0625,-18.5546875
5.23046875,-22.4609375,-47.8515625,-41.50390625,-30.2734375
5.234375,-29.78515625,-49.8046875,-46.38671875,-3.41796875
5.23828125,-24.90234375,-51.26953125,-40.0390625,5.37109375
5.2421875,-32.2265625,-44.43359375,-38.57421875,-45.41015625
5.24609375,2.44140625,-38.57421875,-42.96875,-31.73828125
5.25,1.953125,-37.109375,-44.921875,-7.32421875
5.25390625,-8.7890625,-37.59765625,-43.9453125,-0.9765625
5.2578125,-3.90625,-41.015625,-41.9921875,0.9765625
5.26171875,-14.6484375,-38.0859375,-41.9921875,-9.27734375
5.265625,-13.18359375,-31.73828125,-44.921875,-11.23046875
5.26953125,-14.16015625,-31.73828125,-43.45703125,-10.7421875
5.2734375,-30.76171875,-41.50390625,-52.734375,-19.04296875
5.27734375,-25.390625,-44.43359375,-58.10546875,-18.06640625
5.28125,-17.08984375,-43.9453125,-52.24609375,-31.73828125
5.28515625,-26.85546875,-42.48046875,-50.29296875,-31.25
5.2890625,-23.92578125,-40.0390625,-43.45703125,-13.18359375
5.29296875,-17.578125,-40.0390625,-41.015625,-21.97265625
5.296875,-6.34765625,-46.38671875,-44.43359375,-14.16015625
5.30078125,-10.7421875,-48.33984375,-41.50390625,-0.9765625
5.3046875,-8.7890625,-46.875,-39.55078125,-4.39453125
5.30859375,-24.90234375,-46.875,-42.48046875,-11.71875
5.3125,-37.59765625,-50.78125,-47.36328125,-52.24609375
5.31640625,-5.37109375,-49.31640625,-47.36328125,-39.55078125
5.3203125,-11.71875,-45.41015625,-41.9921875,-3.90625
5.32421875,-25.390625,-43.45703125,-40.52734375,-20.5078125
5.328125,-21.484375,-38.57421875,-43.45703125,-43.9453125
5.33203125,-5.37109375,-36.62109375,-45.41015625,-32.2265625
5.3359375,21.97265625,-35.64453125,-44.43359375,-25.390625
5.33984375,5.859375,-35.15625,-41.9921875,-22.94921875
5.34375,1.46484375,-36.1328125,-40.52734375,-19.53125
5.34765625,4.8828125,-32.2265625,-40.0390625,-25.87890625
5.3515625,-14.6484375,-33.203125,-39.0625,-31.73828125
5.35546875,-5.859375,-33.203125,-40.0390625,-27.34375
5.359375,-17.578125,-30.2734375,-42.96875,-29.78515625
5.36328125,-23.4375,-33.203125,-42.48046875,-33.69140625
5.3671875,-16.11328125,-37.59765625,-42.48046875,-28.3203125
5.37109375,-12.6953125,-40.0390625,-43.9453125,-33.203125
5.375,-15.13671875,-39.0625,-44.43359375,-38.57421875
5.37890625,-31.25,-41.9921875,-43.9453125,-28.80859375
5.3828125,-24.4140625,-43.45703125,-43.45703125,-27.83203125
5.38671875,-27.83203125,-47.36328125,-41.50390625,-31.25
5.390625,-24.4140625,-51.7578125,-44.43359375,-21.97265625
5.39453125,-5.37109375,-48.828125,-47.36328125,-20.01953125
5.3984375,-13.671875,-48.828125,-48.33984375,-31.25
5.40234375,-20.5078125,-45.41015625,-42.96875,-26.3671875
5.40625,-8.30078125,-43.9453125,-40.0390625,-17.08984375
5.41015625,-1.46484375,-42.48046875,-41.9921875,-25.390625
5.4140625,-13.18359375,-47.36328125,-39.0625,-38.57421875
5.41796875,-15.625,-52.24609375,-38.0859375,-18.5546875
5.421875,-28.3203125,-49.31640625,-38.0859375,-5.859375
5.42578125,-32.2265625,-46.875,-43.45703125,-37.109375
5.4296875,-29.78515625,-49.31640625,-46.875,-49.31640625
5.43359375,-37.109375,-53.22265625,-43.45703125,-59.08203125
5.4375,-31.25,-46.875,-48.828125,-43.45703125
5.44140625,-37.59765625,-43.9453125,-50.29296875,-26.85546875
5.4453125,-25.390625,-48.33984375,-46.38671875,-50.78125
5.44921875,-16.11328125,-49.8046875,-48.828125,-60.546875
5.453125,-45.41015625,-47.8515625,-47.8515625,-46.875
5.45703125,-44.43359375,-46.875,-42.48046875,-44.43359375
5.4609375,-39.55078125,-45.41015625,-40.0390625,-52.24609375
5.46484375,-36.62109375,-47.8515625,-41.015625,-57.12890625
5.46875,-30.76171875,-47.8515625,-41.50390625,-47.8515625
5.47265625,-41.50390625,-49.8046875,-37.59765625,-45.41015625
5.4765625,-37.59765625,-52.24609375,-41.9921875,-41.50390625
5.48046875,-40.52734375,-46.875,-46.875,-27.34375
5.484375,-33.203125,-44.43359375,-46.38671875,-22.94921875
5.48828125,-31.25,-43.9453125,-46.875,-12.20703125
5.4921875,-34.1796875,-42.48046875,-43.9453125,-7.8125
5.49609375,-44.43359375,-41.015625,-43.9453125,-28.80859375
5.5,-43.45703125,-40.52734375,-40.52734375,-28.80859375
5.50390625,-16.6015625,-41.015625,-31.73828125,-18.06640625
5.5078125,-20.99609375,-36.62109375,-32.2265625,-25.87890625
5.51171875,-12.20703125,-36.62109375,-38.0859375,-28.3203125
5.515625,1.953125,-40.0390625,-38.57421875,-37.109375
5.51953125,-14.6484375,-36.1328125,-32.71484375,-34.1796875
5.5234375,-9.765625,-35.64453125,-34.66796875,-16.6015625
5.52734375,-18.06640625,-33.69140625,-41.50390625,-28.3203125
5.53125,-33.203125,-33.203125,-34.66796875,-37.59765625
5.53515625,-34.66796875,-37.109375,-34.1796875,-20.99609375
5.5390625,-32.2265625,-38.57421875,-40.0390625,-18.06640625
5.54296875,-33.203125,-36.62109375,-41.50390625,-51.26953125
5.546875,-27.83203125,-33.69140625,-46.875,-54.19921875
5.55078125,-38.0859375,-32.71484375,-50.29296875,-18.06640625
5.5546875,-54.6875,-36.1328125,-49.8046875,5.37109375
5.55859375,-44.43359375,-36.1328125,-47.8515625,-9.765625
5.5625,-24.4140625,-32.2265625,-41.50390625,-37.109375
5.56640625,-12.20703125,-35.15625,-39.55078125,-33.203125
5.5703125,-10.7421875,-36.1328125,-43.45703125,-23.4375
5.57421875,-17.08984375,-37.109375,-44.43359375,-20.01953125
5.578125,-16.11328125,-38.0859375,-46.38671875,-24.90234375
5.58203125,-10.7421875,-32.2265625,-42.48046875,-22.4609375
5.5859375,-33.203125,-31.25,-37.59765625,-24.4140625
5.58984375,-29.296875,-34.1796875,-41.015625,-24.90234375
5.59375,-8.7890625,-31.25,-41.015625,-18.5546875
5.59765625,-14.6484375,-30.2734375,-39.55078125,-34.1796875
5.6015625,-29.78515625,-36.62109375,-45.8984375,-37.59765625
5.60546875,-31.73828125,-41.015625,-48.828125,-13.18359375
5.609375,-26.3671875,-35.15625,-44.921875,-20.01953125
5.61328125,-26.85546875,-34.66796875,-39.55078125,-39.0625
5.6171875,-36.1328125,-42.96875,-40.52734375,-37.59765625
5.62109375,-28.3203125,-37.109375,-43.45703125,-43.9453125
5.625,-24.90234375,-33.69140625,-44.43359375,-49.31640625
5.62890625,-26.3671875,-34.1796875,-38.57421875,-37.109375
5.6328125,-0.9765625,-28.80859375,-35.64453125,-41.015625
5.63671875,-10.25390625,-27.83203125,-34.66796875,-40.0390625
5.640625,-21.97265625,-33.203125,-35.15625,-25.390625
5.64453125,-13.671875,-33.203125,-33.203125,-22.4609375
5.6484375,-15.13671875,-32.71484375,-33.203125,-29.296875
5.65234375,-17.578125,-38.0859375,-34.1796875,-45.41015625
5.65625,-12.6953125,-41.9921875,-40.0390625,-53.22265625
5.66015625,-10.25390625,-42.48046875,-41.9921875,-37.59765625
5.6640625,-22.4609375,-45.8984375,-41.015625,-27.34375
5.66796875,-33.203125,-42.96875,-38.57421875,-20.5078125
5.671875,-27.34375,-42.48046875,-37.109375,-15.13671875
5.67578125,-19.04296875,-42.96875,-33.203125,-4.39453125
5.6796875,-18.06640625,-41.50390625,-34.1796875,-22.4609375
5.68359375,-12.20703125,-41.9921875,-41.015625,-51.26953125
5.6875,-0.9765625,-41.9921875,-41.9921875,-36.62109375
5.69140625,-11.71875,-47.8515625,-29.78515625,-24.4140625
5.6953125,-58.10546875,-55.6640625,-28.3203125,-55.6640625
5.69921875,-80.078125,-51.7578125,-34.66796875,-56.15234375
5.703125,-85.44921875,-49.31640625,-32.71484375,-48.33984375
5.70703125,-60.546875,-44.43359375,-33.69140625,-41.015625
5.7109375,-46.875,-37.109375,-33.203125,-45.41015625
5.71484375,-79.58984375,-36.62109375,-32.71484375,-54.6875
5.71875,-69.82421875,-36.1328125,-36.62109375,-34.66796875
5.72265625,-55.6640625,-36.62109375,-39.55078125,-41.9921875
5.7265625,-81.54296875,-41.015625,-40.52734375,-35.15625
5.73046875,-61.03515625,-41.9921875,-36.1328125,-46.875
5.734375,-45.41015625,-41.50390625,-41.9921875,-58.10546875
5.73828125,-53.7109375,-43.45703125,-44.921875,-31.73828125
5.7421875,-49.8046875,-41.50390625,-33.69140625,-36.1328125
5.74609375,-46.38671875,-33.69140625,-32.2265625,-55.17578125
5.75,-54.19921875,-34.1796875,-36.1328125,-37.109375
5.75390625,-49.31640625,-40.0390625,-39.0625,-35.15625
5.7578125,-32.2265625,-41.9921875,-39.55078125,-44.43359375
5.76171875,-26.85546875,-41.9921875,-34.66796875,-28.80859375
5.765625,-41.015625,-35.64453125,-33.203125,-30.76171875
5.76953125,-61.03515625,-34.66796875,-35.15625,-37.109375
5.7734375,-48.828125,-34.66796875,-36.1328125,-35.15625
5.77734375,-39.0625,-32.71484375,-40.0390625,-51.26953125
5.78125,-62.01171875,-38.0859375,-40.52734375,-43.9453125
5.78515625,-61.03515625,-37.109375,-38.57421875,-23.4375
5.7890625,-57.12890625,-35.64453125,-38.57421875,-22.4609375
5.79296875,-70.80078125,-38.0859375,-35.15625,-30.2734375
5.796875,-64.453125,-39.55078125,-30.76171875,-27.34375
5.80078125,-44.43359375,-40.52734375,-34.66796875,-12.6953125
5.8046875,-30.2734375,-37.109375,-38.0859375,-10.7421875
5.80859375,-29.296875,-38.0859375,-30.2734375,-22.4609375
5.8125,-30.2734375,-37.59765625,-31.25,-45.41015625
5.81640625,-37.59765625,-35.64453125,-41.015625,-59.08203125
5.8203125,-35.15625,-38.57421875,-41.50390625,-52.24609375
5.82421875,-49.31640625,-45.41015625,-43.45703125,-56.640625
5.828125,-56.640625,-44.43359375,-42.96875,-58.59375
5.83203125,-47.36328125,-37.59765625,-37.59765625,-57.12890625
5.8359375,-50.29296875,-37.59765625,-35.15625,-45.41015625
5.83984375,-54.6875,-40.52734375,-32.71484375,-66.40625
5.84375,-47.8515625,-43.45703125,-41.9921875,-64.94140625
5.84765625,-41.50390625,-42.48046875,-46.875,-24.4140625
5.8515625,-48.828125,-44.921875,-46.38671875,-31.73828125
5.85546875,-61.5234375,-46.38671875,-49.31640625,-41.015625
5.859375,-58.59375,-46.38671875,-47.36328125,-36.62109375
5.86328125,-46.875,-50.78125,-41.9921875,-45.8984375
5.8671875,-39.0625,-47.36328125,-40.52734375,-54.6875
5.87109375,-45.8984375,-46.875,-43.9453125,-37.109375
5.875,-39.0625,-44.43359375,-38.57421875,-36.1328125
5.87890625,-29.78515625,-39.55078125,-36.62109375,-61.03515625
5.8828125,-45.8984375,-42.48046875,-38.57421875,-66.40625
5.88671875,-41.015625,-41.9921875,-34.1796875,-66.89453125
5.890625,-47.36328125,-41.015625,-30.76171875,-71.2890625
5.89453125,-45.41015625,-42.48046875,-28.80859375,-62.5
5.8984375,-23.4375,-39.0625,-31.25,-59.08203125
5.90234375,-35.64453125,-35.64453125,-34.66796875,-41.50390625
5.90625,-47.36328125,-32.71484375,-32.2265625,-28.80859375
5.91015625,-23.92578125,-33.69140625,-34.1796875,-36.62109375
5.9140625,-17.08984375,-39.0625,-35.15625,-42.96875
5.91796875,-20.99609375,-40.52734375,-34.1796875,-36.62109375
5.921875,-14.16015625,-40.0390625,-41.50390625,-29.296875
5.92578125,-21.97265625,-44.43359375,-43.9453125,-33.203125
5.9296875,-30.2734375,-45.41015625,-40.52734375,-52.734375
5.93359375,-39.0625,-45.41015625,-41.50390625,-46.38671875
5.9375,-41.015625,-45.8984375,-45.41015625,-36.1328125
5.94140625,-42.96875,-41.9921875,-42.48046875,-41.9921875
5.9453125,-41.015625,-42.96875,-38.57421875,-42.96875
5.94921875,-30.2734375,-45.8984375,-42.48046875,-48.33984375
5.953125,-12.20703125,-46.875,-41.015625,-40.52734375
5.95703125,-31.25,-45.41015625,-38.0859375,-31.25
5.9609375,-45.8984375,-44.43359375,-41.9921875,-37.109375
5.96484375,-38.57421875,-45.41015625,-41.50390625,-9.27734375
5.96875,-61.03515625,-49.8046875,-42.96875,-38.57421875
5.97265625,-42.48046875,-51.26953125,-45.8984375,-61.5234375
5.9765625,-30.2734375,-50.29296875,-41.015625,-34.1796875
5.98046875,-58.59375,-50.78125,-39.55078125,-53.7109375
5.984375,-50.29296875,-52.24609375,-42.96875,-56.640625
5.98828125,-29.78515625,-53.22265625,-41.9921875,-24.4140625
5.9921875,-41.50390625,-53.22265625,-45.41015625,-46.875
5.99609375,-51.7578125,-54.19921875,-50.78125,-61.03515625
6.0,-58.59375,-52.734375,-44.921875,-38.0859375
6.00390625,-44.43359375,-50.78125,-35.64453125,-32.2265625
6.0078125,-33.203125,-50.29296875,-35.64453125,-22.94921875
6.01171875,-48.828125,-55.17578125,-42.48046875,-16.11328125
6.015625,-38.0859375,-54.19921875,-40.52734375,-31.73828125
6.01953125,-25.87890625,-42.96875,-39.0625,-23.4375
6.0234375,-25.390625,-42.48046875,-39.0625,-23.4375
6.02734375,-3.90625,-47.36328125,-38.0859375,-41.9921875
6.03125,-26.3671875,-49.31640625,-42.48046875,-39.55078125
6.03515625,-62.5,-53.7109375,-46.875,-35.64453125
6.0390625,-46.875,-50.29296875,-41.50390625,-41.9921875
6.04296875,-44.43359375,-46.875,-36.1328125,-33.69140625
6.046875,-42.48046875,-48.828125,-39.0625,-19.04296875
6.05078125,-25.87890625,-45.8984375,-37.59765625,-48.33984375
6.0546875,-7.32421875,-43.45703125,-37.109375,-51.26953125
6.05859375,-38.57421875,-47.8515625,-44.43359375,-37.59765625
6.0625,-49.8046875,-47.36328125,-43.9453125,-52.24609375
6.06640625,-33.69140625,-42.48046875,-37.59765625,-44.43359375
6.0703125,-38.0859375,-41.50390625,-38.57421875,-15.625
6.07421875,-33.203125,-44.43359375,-40.0390625,-31.73828125
6.078125,-42.48046875,-48.828125,-42.48046875,-53.7109375
6.08203125,-36.1328125,-48.828125,-42.96875,-52.734375
6.0859375,-25.390625,-47.36328125,-39.55078125,-45.8984375
6.08984375,-25.87890625,-44.43359375,-37.109375,-28.80859375
6.09375,-25.390625,-41.015625,-37.59765625,-32.2265625
6.09765625,-34.66796875,-40.0390625,-37.59765625,-36.62109375
6.1015625,-15.625,-41.50390625,-41.015625,-15.13671875
6.10546875,0.48828125,-41.50390625,-43.45703125,-25.87890625
6.109375,-14.6484375,-42.96875,-43.45703125,-37.109375
6.11328125,-20.01953125,-44.43359375,-40.0390625,-23.92578125
6.1171875,-25.87890625,-40.0390625,-36.1328125,-11.71875
6.12109375,-10.25390625,-41.015625,-39.55078125,-9.27734375
6.125,-17.578125,-45.41015625,-38.0859375,-11.71875
6.12890625,-37.59765625,-46.875,-31.25,-6.8359375
6.1328125,-31.73828125,-49.8046875,-32.71484375,-21.97265625
6.13671875,-32.71484375,-47.36328125,-34.1796875,-33.203125
6.140625,-34.66796875,-44.43359375,-37.109375,-36.62109375
6.14453125,-35.64453125,-48.33984375,-35.15625,-12.20703125
6.1484375,-23.4375,-50.78125,-31.73828125,17.578125
6.15234375,-16.11328125,-47.36328125,-33.69140625,-4.39453125
6.15625,-38.57421875,-41.9921875,-41.015625,-51.7578125
6.16015625,-64.94140625,-41.50390625,-48.828125,-67.3828125
6.1640625,-37.59765625,-44.43359375,-50.78125,-40.52734375
6.16796875,-32.71484375,-42.96875,-45.41015625,-34.1796875
6.171875,-43.45703125,-41.50390625,-42.96875,-20.01953125
6.17578125,-37.109375,-41.50390625,-45.8984375,-11.71875
6.1796875,-41.015625,-41.9921875,-47.36328125,-49.8046875
6.18359375,-53.7109375,-42.48046875,-49.31640625,-45.8984375
6.1875,-43.9453125,-48.33984375,-49.8046875,-27.83203125
6.19140625,-20.99609375,-44.921875,-50.29296875,-20.99609375
6.1953125,-19.04296875,-40.0390625,-50.29296875,-16.6015625
6.19921875,-31.73828125,-42.96875,-50.78125,-43.9453125
6.203125,-34.66796875,-42.96875,-52.24609375,-52.734375
6.20703125,-30.76171875,-39.55078125,-54.6875,-42.48046875
6.2109375,-39.0625,-37.59765625,-57.6171875,-47.36328125
6.21484375,-38.0859375,-42.48046875,-55.17578125,-68.84765625
6.21875,-20.01953125,-41.9921875,-48.33984375,-64.94140625
6.22265625,-37.59765625,-35.15625,-48.33984375,-31.25
6.2265625,-44.43359375,-35.15625,-45.8984375,-15.13671875
6.23046875,-45.41015625,-37.59765625,-43.9453125,-64.453125
6.234375,-49.31640625,-37.59765625,-46.875,-63.96484375
6.23828125,-26.85546875,-36.62109375,-42.48046875,-20.99609375
6.2421875,-13.18359375,-35.15625,-41.015625,-21.97265625
6.24609375,-22.4609375,-35.15625,-47.8515625,-33.69140625
6.25,-34.1796875,-36.1328125,-51.26953125,-31.25
6.25390625,-45.8984375,-33.203125,-49.31640625,-21.97265625
6.2578125,-18.5546875,-29.296875,-43.9453125,-37.109375
6.26171875,3.90625,-32.71484375,-46.875,-37.59765625
6.265625,-18.06640625,-38.57421875,-51.26953125,-35.64453125
6.26953125,-45.8984375,-34.66796875,-49.8046875,-32.71484375
6.2734375,-26.85546875,-29.78515625,-48.33984375,-28.80859375
6.27734375,-14.6484375,-31.73828125,-44.921875,-23.92578125
6.28125,-29.78515625,-28.80859375,-46.38671875,-23.4375
6.28515625,-30.76171875,-25.87890625,-44.921875,-36.1328125
6.2890625,-21.484375,-24.4140625,-44.43359375,-40.0390625
6.29296875,-25.87890625,-25.390625,-41.9921875,-29.296875
6.296875,-31.73828125,-29.296875,-38.0859375,-34.66796875
6.30078125,-35.15625,-28.3203125,-42.48046875,-34.66796875
6.3046875,-41.9921875,-24.90234375,-47.36328125,-15.625
6.30859375,-34.66796875,-26.85546875,-44.43359375,-19.04296875
6.3125,-31.73828125,-26.85546875,-39.55078125,-29.296875
6.31640625,-43.9453125,-28.3203125,-40.52734375,-42.96875
6.3203125,-41.9921875,-30.76171875,-48.828125,-37.109375
6.32421875,-33.69140625,-26.3671875,-47.8515625,-35.15625
6.328125,-51.7578125,-23.92578125,-46.875,-38.57421875
6.33203125,-36.62109375,-30.2734375,-51.26953125,-36.62109375
6.3359375,-8.30078125,-35.15625,-51.7578125,-45.8984375
6.33984375,-24.4140625,-30.2734375,-47.8515625,-35.64453125
6.34375,-29.78515625,-30.76171875,-48.33984375,-45.41015625
6.34765625,-30.76171875,-33.69140625,-51.7578125,-33.203125
6.3515625,-32.71484375,-32.71484375,-43.9453125,-20.99609375
6.35546875,-30.76171875,-34.1796875,-44.43359375,-20.5078125
6.359375,-21.484375,-32.71484375,-47.36328125,-12.20703125
6.36328125,-14.16015625,-29.296875,-48.33984375,-14.16015625
6.3671875,-25.390625,-31.73828125,-46.38671875,-3.90625
6.37109375,-27.83203125,-34.1796875,-43.45703125,-24.4140625
6.375,-31.25,-36.1328125,-48.33984375,-51.26953125
6.37890625,-26.3671875,-36.62109375,-46.875,-51.26953125
6.3828125,-24.90234375,-42.48046875,-48.33984375,-51.26953125
6.38671875,-30.2734375,-48.33984375,-49.31640625,-37.59765625
6.390625,-31.73828125,-48.33984375,-50.78125,-43.45703125
6.39453125,-48.33984375,-42.96875,-48.33984375,-41.50390625
6.3984375,-46.38671875,-40.52734375,-45.8984375,-42.48046875
6.40234375,-33.69140625,-41.50390625,-50.78125,-38.57421875
6.40625,-28.80859375,-41.015625,-49.8046875,9.27734375
6.41015625,-16.11328125,-41.9921875,-46.38671875,3.41796875
6.4140625,-19.53125,-45.41015625,-44.43359375,-18.5546875
6.41796875,-43.9453125,-43.45703125,-46.875,-18.06640625
6.421875,-44.43359375,-46.38671875,-53.22265625,-9.27734375
6.42578125,-30.2734375,-46.38671875,-56.640625,-7.8125
6.4296875,-27.83203125,-41.015625,-56.15234375,-37.59765625
6.43359375,-26.85546875,-40.0390625,-53.22265625,-46.38671875
6.4375,-10.25390625,-43.45703125,-61.03515625,-36.1328125
6.44140625,0.9765625,-41.50390625,-63.96484375,-6.8359375
6.4453125,0.9765625,-41.015625,-50.78125,15.625
6.44921875,-23.92578125,-41.9921875,-39.0625,6.8359375
6.453125,-48.828125,-44.921875,-41.9921875,-39.55078125
6.45703125,-52.24609375,-47.36328125,-45.8984375,-54.19921875
6.4609375,-46.38671875,-45.8984375,-37.59765625,-20.5078125
6.46484375,-52.734375,-51.7578125,-32.2265625,-14.6484375
6.46875,-63.4765625,-50.29296875,-33.69140625,-33.203125
6.47265625,-68.84765625,-45.41015625,-35.64453125,-49.31640625
6.4765625,-75.68359375,-46.875,-38.57421875,-54.6875
6.48046875,-41.015625,-52.24609375,-41.50390625,-60.546875
6.484375,-18.5546875,-53.7109375,-41.9921875,-52.734375
6.48828125,-50.29296875,-51.26953125,-47.36328125,-31.25
6.4921875,-44.921875,-53.22265625,-47.8515625,-30.76171875
6.49609375,-38.0859375,-56.640625,-44.921875,-23.4375
6.5,-48.33984375,-51.7578125,-38.0859375,-32.2265625
6.50390625,-35.64453125,-50.78125,-38.57421875,-52.734375
6.5078125,-46.38671875,-54.19921875,-42.96875,-23.92578125
6.51171875,-55.17578125,-57.6171875,-41.50390625,-27.34375
6.515625,-51.7578125,-58.59375,-42.48046875,-47.8515625
6.51953125,-53.7109375,-61.5234375,-42.48046875,-44.43359375
6.5234375,-57.6171875,-60.05859375,-41.9921875,-32.71484375
6.52734375,-58.59375,-56.640625,-48.828125,-38.0859375
6.53125,-56.15234375,-57.12890625,-52.24609375,-55.17578125
6.53515625,-40.52734375,-56.640625,-50.29296875,-39.55078125
6.5390625,-41.9921875,-53.7109375,-49.8046875,-20.01953125
6.54296875,-40.52734375,-56.15234375,-50.29296875,-26.3671875
6.546875,-32.2265625,-56.15234375,-49.8046875,-41.9921875
6.55078125,-36.1328125,-50.78125,-45.8984375,-56.15234375
6.5546875,-32.71484375,-50.78125,-50.29296875,-53.7109375
6.55859375,-38.0859375,-49.31640625,-51.7578125,-25.87890625
6.5625,-44.921875,-46.38671875,-45.41015625,-38.0859375
6.56640625,-37.59765625,-52.24609375,-50.29296875,-50.78125
6.5703125,-34.66796875,-54.19921875,-54.19921875,-22.94921875
6.57421875,-38.57421875,-50.29296875,-48.33984375,-24.4140625
6.578125,-38.57421875,-53.7109375,-48.33984375,-36.62109375
6.58203125,-44.43359375,-56.15234375,-47.36328125,-42.96875
6.5859375,-41.015625,-56.15234375,-45.8984375,-42.48046875
6.58984375,-49.8046875,-54.19921875,-47.36328125,-42.48046875
6.59375,-49.8046875,-57.6171875,-47.8515625,-25.87890625
6.59765625,-26.85546875,-56.640625,-47.36328125,-19.04296875
6.6015625,-41.9921875,-45.8984375,-47.36328125,-37.59765625
6.60546875,-47.36328125,-42.96875,-48.828125,-31.25
6.609375,-22.94921875,-47.36328125,-50.78125,-40.0390625
6.61328125,-34.1796875,-51.7578125,-50.29296875,-33.69140625
6.6171875,-44.43359375,-50.78125,-47.36328125,-27.83203125
6.62109375,-40.52734375,-46.38671875,-46.38671875,-45.8984375
6.625,-23.92578125,-49.31640625,-41.9921875,-42.48046875
6.62890625,-22.94921875,-50.29296875,-42.48046875,-46.38671875
6.6328125,-47.8515625,-50.78125,-46.875,-37.109375
6.63671875,-43.9453125,-50.78125,-43.9453125,-22.94921875
6.640625,-19.53125,-45.41015625,-43.45703125,-34.1796875
6.64453125,0.48828125,-41.50390625,-45.41015625,-43.9453125
6.6484375,-20.01953125,-39.55078125,-46.875,-48.828125
6.65234375,-39.0625,-41.50390625,-45.8984375,-32.71484375
6.65625,-38.57421875,-43.45703125,-43.45703125,-19.04296875
6.66015625,-39.55078125,-42.96875,-45.8984375,-45.41015625
6.6640625,-36.1328125,-47.36328125,-44.921875,-59.5703125
6.66796875,-39.55078125,-49.31640625,-41.9921875,-48.828125
6.671875,-38.0859375,-43.9453125,-44.43359375,-47.8515625
6.67578125,-39.0625,-44.43359375,-45.41015625,-44.43359375
6.6796875,-28.3203125,-47.36328125,-47.8515625,-48.828125
6.68359375,-30.2734375,-48.828125,-50.29296875,-35.64453125
6.6875,-41.015625,-50.78125,-52.24609375,-5.859375
6.69140625,-33.203125,-50.29296875,-46.875,2.44140625
6.6953125,-19.53125,-45.8984375,-43.45703125,-33.203125
6.69921875,-24.90234375,-47.8515625,-46.38671875,-50.78125
6.703125,-44.43359375,-55.6640625,-46.875,-41.015625
6.70703125,-44.43359375,-55.17578125,-47.36328125,-51.26953125
6.7109375,-48.828125,-53.7109375,-50.78125,-54.6875
6.71484375,-48.828125,-52.24609375,-48.828125,-57.6171875
6.71875,-35.64453125,-53.7109375,-45.8984375,-45.8984375
6.72265625,-42.48046875,-50.29296875,-45.41015625,-32.2265625
6.7265625,-41.015625,-44.921875,-48.828125,-33.69140625
6.73046875,-17.08984375,-47.8515625,-51.26953125,-28.3203125
6.734375,-1.953125,-51.26953125,-50.78125,-18.5546875
6.73828125,-12.6953125,-54.6875,-49.8046875,-10.7421875
6.7421875,-35.64453125,-53.7109375,-47.36328125,-9.27734375
6.74609375,-35.15625,-51.26953125,-46.38671875,-42.48046875
6.75,-28.80859375,-50.78125,-48.828125,-47.36328125
6.75390625,-25.390625,-52.24609375,-54.19921875,-40.52734375
6.7578125,-29.296875,-56.640625,-55.17578125,-27.34375
6.76171875,-39.55078125,-54.19921875,-48.828125,-16.11328125
6.765625,-9.765625,-48.828125,-43.45703125,-30.76171875
6.76953125,6.34765625,-52.24609375,-49.8046875,-37.59765625
6.7734375,-17.08984375,-58.59375,-54.19921875,-30.76171875
6.77734375,-43.45703125,-57.12890625,-45.41015625,-36.1328125
6.78125,-34.1796875,-55.17578125,-42.96875,-49.8046875
6.78515625,-30.2734375,-54.19921875,-44.921875,-33.69140625
6.7890625,-30.2734375,-50.78125,-45.8984375,-13.671875
6.79296875,-20.01953125,-46.875,-47.36328125,-28.80859375
6.796875,-16.6015625,-48.828125,-48.828125,-57.6171875
6.80078125,0.48828125,-46.875,-46.38671875,-41.015625
6.8046875,-6.8359375,-42.48046875,-45.41015625,-26.3671875
6.80859375,-33.69140625,-45.8984375,-46.875,-37.59765625
6.8125,-28.80859375,-46.38671875,-44.43359375,-46.875
6.81640625,-18.5546875,-43.45703125,-47.36328125,-46.38671875
6.8203125,-11.71875,-45.41015625,-52.24609375,-30.2734375
6.82421875,-0.9765625,-46.38671875,-46.875,-25.87890625
6.828125,-19.53125,-44.43359375,-44.921875,-38.0859375
6.83203125,-12.20703125,-48.33984375,-47.8515625,-30.76171875
6.8359375,-9.27734375,-52.734375,-51.26953125,-27.83203125
6.83984375,-3.41796875,-45.8984375,-48.33984375,-30.2734375
6.84375,2.9296875,-44.921875,-43.45703125,-23.92578125
6.84765625,-6.8359375,-44.921875,-41.50390625,-33.69140625
6.8515625,-13.671875,-48.33984375,-42.48046875,-27.83203125
6.85546875,3.41796875,-47.36328125,-42.96875,-1.46484375
6.859375,-7.8125,-37.59765625,-47.36328125,-8.7890625
6.86328125,-27.83203125,-41.50390625,-44.921875,-26.3671875
6.8671875,-5.859375,-44.43359375,-43.9453125,-19.04296875
6.87109375,16.6015625,-34.1796875,-45.41015625,-9.27734375
6.875,-7.32421875,-36.1328125,-44.43359375,-19.04296875
6.87890625,-27.34375,-41.015625,-43.45703125,-13.18359375
6.8828125,-21.97265625,-43.45703125,-46.38671875,-4.8828125
6.88671875,-18.5546875,-46.38671875,-45.41015625,-23.4375
6.890625,-20.5078125,-43.45703125,-42.48046875,-32.71484375
6.89453125,-25.87890625,-43.9453125,-43.45703125,-24.90234375
6.8984375,-26.85546875,-47.36328125,-41.9921875,-33.203125
6.90234375,-14.16015625,-45.41015625,-42.96875,-33.69140625
6.90625,-17.08984375,-41.015625,-42.96875,-29.78515625
6.91015625,-29.296875,-43.9453125,-41.015625,-49.31640625
6.9140625,-31.25,-53.22265625,-48.33984375,-49.8046875
6.91796875,-20.99609375,-51.7578125,-51.7578125,-31.73828125
6.921875,-38.0859375,-46.875,-49.31640625,-44.921875
6.92578125,-34.66796875,-44.43359375,-41.9921875,-44.921875
6.9296875,-28.3203125,-39.0625,-41.9921875,-23.92578125
6.93359375,-48.828125,-39.0625,-49.31640625,-25.87890625
6.9375,-34.66796875,-45.41015625,-46.875,-17.08984375
6.94140625,0.48828125,-43.9453125,-36.62109375,15.625
6.9453125,10.7421875,-37.109375,-40.52734375,-22.94921875
6.94921875,-44.43359375,-39.55078125,-50.78125,-86.42578125
6.953125,-66.89453125,-38.0859375,-48.33984375,-81.0546875
6.95703125,-62.5,-35.15625,-50.78125,-71.2890625
6.9609375,-74.21875,-41.50390625,-57.6171875,-77.63671875
6.96484375,-62.01171875,-43.9453125,-59.08203125,-86.9140625
6.96875,-68.359375,-38.57421875,-56.15234375,-80.078125
6.97265625,-83.0078125,-37.109375,-54.19921875,-64.453125
6.9765625,-63.4765625,-39.0625,-55.6640625,-83.984375
6.98046875,-66.40625,-36.62109375,-52.734375,-99.12109375
6.984375,-43.9453125,-37.109375,-48.33984375,-67.3828125
6.98828125,8.7890625,-35.64453125,-47.8515625,-60.546875
6.9921875,-35.64453125,-33.203125,-53.7109375,-78.61328125
6.99609375,-28.3203125,-33.69140625,-51.7578125,-94.23828125
7.0,-3.90625,-38.57421875,-46.38671875,-73.73046875
7.00390625,-31.25,-41.50390625,-51.7578125,-63.4765625
7.0078125,-13.18359375,-44.43359375,-53.7109375,-76.171875
7.01171875,9.765625,-43.9453125,-51.7578125,-66.40625
7.015625,-40.52734375,-41.9921875,-52.734375,-47.36328125
7.01953125,-66.89453125,-44.43359375,-54.6875,-63.4765625
7.0234375,-48.33984375,-43.45703125,-55.6640625,-47.36328125
7.02734375,-35.15625,-43.45703125,-57.12890625,-41.015625
7.03125,-18.5546875,-37.59765625,-55.17578125,-49.8046875
7.03515625,-21.484375,-38.0859375,-55.6640625,-40.0390625
7.0390625,-25.390625,-44.43359375,-51.7578125,-60.05859375
7.04296875,12.6953125,-39.0625,-46.875,-45.8984375
7.046875,3.90625,-33.203125,-43.9453125,-41.9921875
7.05078125,-4.39453125,-31.73828125,-41.015625,-11.71875
7.0546875,36.62109375,-31.73828125,-40.0390625,11.71875
7.05859375,35.15625,-29.296875,-37.109375,-58.10546875
7.0625,10.25390625,-26.3671875,-37.59765625,-49.31640625
7.06640625,12.20703125,-26.3671875,-37.109375,-25.87890625
7.0703125,-1.46484375,-19.04296875,-34.66796875,-39.55078125
7.07421875,-5.859375,-16.11328125,-36.62109375,-11.23046875
7.078125,29.296875,-20.5078125,-33.203125,-18.5546875
7.08203125,24.90234375,-24.90234375,-33.203125,-39.0625
7.0859375,-2.9296875,-32.71484375,-37.109375,-0.9765625
7.08984375,18.5546875,-30.2734375,-36.1328125,22.4609375
7.09375,28.3203125,-27.34375,-37.59765625,22.94921875
7.09765625,-24.90234375,-29.78515625,-36.1328125,15.13671875
7.1015625,4.39453125,-26.85546875,-31.73828125,50.29296875
7.10546875,18.06640625,-27.83203125,-32.71484375,26.85546875
7.109375,-4.39453125,-31.73828125,-33.203125,-11.23046875
7.11328125,3.41796875,-25.87890625,-33.203125,8.30078125
7.1171875,11.71875,-22.94921875,-35.15625,10.25390625
7.12109375,21.484375,-20.99609375,-32.2265625,26.85546875
7.125,28.3203125,-26.3671875,-33.69140625,16.6015625
7.12890625,50.78125,-30.76171875,-37.109375,42.96875
7.1328125,43.9453125,-30.2734375,-35.64453125,50.78125
7.13671875,45.41015625,-36.62109375,-39.0625,20.5078125
7.140625,41.9921875,-42.96875,-39.0625,20.99609375
7.14453125,39.55078125,-31.73828125,-30.2734375,20.5078125
7.1484375,44.921875,-24.90234375,-29.296875,24.90234375
7.15234375,50.29296875,-26.85546875,-37.109375,35.15625
7.15625,24.90234375,-26.85546875,-38.0859375,22.94921875
7.16015625,28.80859375,-25.390625,-31.25,22.4609375
7.1640625,31.73828125,-24.4140625,-28.80859375,32.2265625
7.16796875,13.18359375,-23.4375,-30.2734375,22.4609375
7.171875,19.53125,-23.92578125,-37.109375,31.25
7.17578125,46.38671875,-25.87890625,-37.109375,65.4296875
7.1796875,34.1796875,-24.4140625,-30.2734375,41.50390625
7.18359375,-17.08984375,-27.83203125,-31.25,-0.9765625
7.1875,-29.296875,-31.25,-30.2734375,-1.953125
7.19140625,-39.55078125,-30.76171875,-27.83203125,-23.92578125
7.1953125,-70.3125,-34.66796875,-33.69140625,-72.265625
7.19921875,-100.5859375,-37.109375,-33.69140625,-109.86328125
7.203125,-105.95703125,-30.76171875,-28.80859375,-98.14453125
7.20703125,-133.30078125,-29.78515625,-26.3671875,-85.9375
7.2109375,-142.578125,-32.2265625,-27.83203125,-133.7890625
7.21484375,-128.41796875,-31.73828125,-26.3671875,-145.01953125
7.21875,-155.2734375,-33.203125,-23.4375,-138.18359375
7.22265625,-163.0859375,-34.1796875,-21.484375,-164.0625
7.2265625,-161.1328125,-37.59765625,-25.390625,-169.921875
7.23046875,-168.45703125,-44.43359375,-22.4609375,-152.34375
7.234375,-148.92578125,-46.875,-23.92578125,-178.7109375
7.23828125,-145.01953125,-48.828125,-31.25,-188.4765625
7.2421875,-157.71484375,-48.33984375,-29.78515625,-132.32421875
7.24609375,-130.859375,-41.9921875,-28.3203125,-124.51171875
7.25,-107.91015625,-41.015625,-25.87890625,-132.32421875
7.25390625,-90.33203125,-40.52734375,-22.94921875,-102.05078125
7.2578125,-84.9609375,-39.55078125,-26.3671875,-92.7734375
7.26171875,-98.6328125,-39.55078125,-24.90234375,-101.07421875
7.265625,-99.12109375,-37.109375,-21.484375,-94.23828125
7.26953125,-72.265625,-32.2265625,-18.06640625,-71.2890625
7.2734375,-42.48046875,-35.64453125,-19.53125,-51.26953125
7.27734375,-52.734375,-39.55078125,-21.484375,-48.828125
7.28125,-47.36328125,-36.62109375,-21.97265625,-54.19921875
7.28515625,-27.34375,-36.1328125,-22.4609375,-24.90234375
7.2890625,-17.08984375,-35.64453125,-27.34375,-35.15625
7.29296875,-14.16015625,-32.2265625,-32.2265625,-49.8046875
7.296875,-49.31640625,-35.15625,-30.2734375,-36.62109375
7.30078125,-28.3203125,-34.1796875,-23.92578125,-30.76171875
7.3046875,-13.671875,-28.80859375,-25.87890625,-29.296875
7.30859375,-25.390625,-32.2265625,-27.83203125,-28.3203125
7.3125,-24.4140625,-33.203125,-23.92578125,-27.83203125
7.31640625,-23.92578125,-26.3671875,-19.04296875,-34.66796875
7.3203125,-29.78515625,-26.85546875,-20.5078125,-14.6484375
7.32421875,-28.3203125,-28.3203125,-22.94921875,-5.37109375
7.328125,-33.69140625,-24.90234375,-29.296875,-23.92578125
7.33203125,-53.22265625,-24.90234375,-36.62109375,-43.9453125
7.3359375,-38.57421875,-28.80859375,-32.71484375,-29.78515625
7.33984375,-33.203125,-27.34375,-30.2734375,-7.8125
7.34375,-50.29296875,-24.90234375,-30.76171875,-59.08203125
7.34765625,-38.0859375,-24.90234375,-25.390625,-84.47265625
7.3515625,-39.0625,-21.484375,-24.90234375,-52.734375
7.35546875,-53.22265625,-26.3671875,-33.203125,-65.91796875
7.359375,-43.9453125,-27.34375,-36.62109375,-59.5703125
7.36328125,-42.96875,-24.90234375,-31.73828125,-49.8046875
7.3671875,-55.17578125,-28.3203125,-33.69140625,-69.82421875
7.37109375,-50.78125,-31.25,-33.69140625,-48.33984375
7.375,-52.734375,-34.66796875,-32.2265625,-54.19921875
7.37890625,-41.015625,-32.2265625,-36.62109375,-66.40625
7.3828125,-40.52734375,-34.1796875,-34.1796875,-73.73046875
7.38671875,-53.7109375,-34.1796875,-31.25,-75.1953125
7.390625,-99.609375,-32.71484375,-37.59765625,-79.58984375
7.39453125,-126.46484375,-34.66796875,-37.59765625,-111.81640625
7.3984375,-104.00390625,-26.85546875,-40.0390625,-129.8828125
7.40234375,-102.05078125,-24.4140625,-48.33984375,-152.83203125
7.40625,-144.53125,-23.92578125,-41.015625,-142.578125
7.41015625,-174.31640625,-26.85546875,-36.1328125,-135.25390625
7.4140625,-164.55078125,-29.78515625,-33.69140625,-183.10546875
7.41796875,-166.015625,-25.87890625,-30.76171875,-188.96484375
7.421875,-177.24609375,-27.83203125,-31.73828125,-179.19921875
7.42578125,-198.2421875,-32.2265625,-33.69140625,-194.3359375
7.4296875,-164.0625,-36.1328125,-33.203125,-189.453125
7.43359375,-117.1875,-40.52734375,-31.25,-164.55078125
7.4375,-143.06640625,-44.921875,-33.69140625,-156.25
7.44140625,-157.71484375,-42.96875,-24.4140625,-140.625
7.4453125,-145.99609375,-36.1328125,-18.5546875,-129.8828125
7.44921875,-153.3203125,-35.64453125,-20.01953125,-99.609375
7.453125,-140.13671875,-37.109375,-20.5078125,-110.3515625
7.45703125,-101.5625,-39.55078125,-20.5078125,-125.48828125
7.4609375,-112.3046875,-43.9453125,-20.01953125,-132.8125
7.46484375,-123.046875,-43.9453125,-19.53125,-128.41796875
7.46875,-87.890625,-42.48046875,-18.5546875,-99.609375
7.47265625,-83.49609375,-46.875,-20.01953125,-81.0546875
7.4765625,-98.14453125,-47.8515625,-19.04296875,-61.03515625
7.48046875,-61.03515625,-38.57421875,-12.20703125,-60.546875
7.484375,-47.8515625,-39.0625,-14.6484375,-60.546875
7.48828125,-49.8046875,-39.55078125,-19.53125,-48.828125
7.4921875,-51.26953125,-37.109375,-20.5078125,-24.90234375
7.49609375,-50.29296875,-36.1328125,-21.97265625,-38.0859375
7.5,-40.52734375,-37.109375,-24.90234375,-47.36328125
7.50390625,-34.1796875,-39.0625,-25.390625,-38.57421875
7.5078125,-21.97265625,-37.109375,-24.90234375,-27.83203125
7.51171875,-56.15234375,-35.15625,-25.87890625,-26.85546875
7.515625,-23.4375,-33.69140625,-23.92578125,-33.203125
7.51953125,30.76171875,-31.73828125,-23.92578125,-21.484375
7.5234375,0.48828125,-34.1796875,-27.34375,9.765625
7.52734375,0.0,-32.2265625,-23.92578125,16.11328125
7.53125,16.6015625,-24.90234375,-21.97265625,11.23046875
7.53515625,19.53125,-26.3671875,-20.01953125,30.2734375
7.5390625,7.8125,-32.2265625,-21.484375,31.25
7.54296875,11.71875,-29.78515625,-30.2734375,4.39453125
7.546875,16.6015625,-24.90234375,-33.203125,-3.90625
7.55078125,20.01953125,-26.85546875,-29.78515625,27.34375
7.5546875,40.0390625,-24.90234375,-23.92578125,48.33984375
7.55859375,26.3671875,-21.97265625,-27.83203125,17.578125
7.5625,21.97265625,-20.99609375,-28.80859375,-0.48828125
7.56640625,51.7578125,-19.04296875,-21.97265625,-12.6953125
7.5703125,14.6484375,-23.92578125,-24.4140625,-14.6484375
7.57421875,16.11328125,-29.78515625,-31.73828125,4.39453125
7.578125,36.1328125,-28.80859375,-31.73828125,9.27734375
7.58203125,15.13671875,-28.80859375,-32.71484375,-0.48828125
7.5859375,25.87890625,-24.90234375,-36.1328125,6.34765625
7.58984375,27.83203125,-23.4375,-35.15625,14.6484375
7.59375,2.9296875,-30.2734375,-29.78515625,16.11328125
7.59765625,13.671875,-33.203125,-26.3671875,5.37109375
7.6015625,20.99609375,-37.59765625,-31.25,-17.08984375
7.60546875,27.83203125,-37.109375,-29.296875,12.6953125
7.609375,31.73828125,-32.2265625,-24.4140625,35.64453125
7.61328125,24.4140625,-35.15625,-25.87890625,31.73828125
7.6171875,39.55078125,-37.59765625,-31.73828125,15.625
7.62109375,35.15625,-31.73828125,-37.109375,-2.44140625
7.625,20.01953125,-29.78515625,-34.66796875,9.27734375
7.62890625,27.34375,-31.25,-28.80859375,6.8359375
7.6328125,25.87890625,-28.3203125,-26.85546875,18.06640625
7.63671875,29.296875,-30.2734375,-26.3671875,33.203125
7.640625,43.9453125,-39.0625,-23.92578125,31.73828125
7.64453125,53.7109375,-40.0390625,-26.3671875,34.1796875
7.6484375,24.90234375,-39.55078125,-30.76171875,9.765625
7.65234375,24.4140625,-38.57421875,-28.3203125,13.18359375
7.65625,31.25,-32.71484375,-22.94921875,28.3203125
7.66015625,31.25,-28.3203125,-27.34375,25.390625
7.6640625,38.0859375,-30.76171875,-32.2265625,29.78515625
7.66796875,26.85546875,-33.69140625,-25.390625,36.1328125
7.671875,39.55078125,-31.25,-26.3671875,55.6640625
7.67578125,24.4140625,-27.83203125,-23.92578125,55.17578125
7.6796875,26.3671875,-28.80859375,-21.484375,4.39453125
7.68359375,35.64453125,-25.87890625,-25.87890625,-11.71875
7.6875,27.34375,-23.4375,-22.94921875,-8.7890625
7.69140625,39.0625,-25.87890625,-21.97265625,10.25390625
7.6953125,22.4609375,-25.390625,-22.94921875,28.80859375
7.69921875,-7.32421875,-27.83203125,-26.85546875,22.4609375
7.703125,30.2734375,-29.78515625,-29.296875,12.6953125
7.70703125,22.94921875,-29.78515625,-31.73828125,-0.48828125
7.7109375,6.8359375,-31.25,-35.64453125,16.11328125
7.71484375,20.01953125,-39.0625,-35.64453125,28.80859375
7.71875,18.06640625,-39.0625,-32.71484375,6.34765625
7.72265625,9.27734375,-38.0859375,-30.2734375,3.90625
7.7265625,-16.11328125,-41.9921875,-29.296875,9.765625
7.73046875,-7.8125,-37.59765625,-30.76171875,-21.484375
7.734375,9.27734375,-32.71484375,-28.80859375,-20.5078125
7.73828125,1.46484375,-29.78515625,-29.78515625,-12.20703125
7.7421875,20.01953125,-24.4140625,-30.76171875,-4.8828125
7.74609375,30.76171875,-23.4375,-24.90234375,-4.8828125
7.75,28.3203125,-27.83203125,-20.99609375,-15.625
7.75390625,-18.06640625,-28.3203125,-23.4375,-18.06640625
7.7578125,0.9765625,-31.25,-25.87890625,-22.4609375
7.76171875,20.5078125,-31.73828125,-27.34375,-6.8359375
7.765625,31.25,-27.34375,-31.25,7.8125
7.76953125,60.546875,-26.3671875,-22.94921875,20.5078125
7.7734375,17.08984375,-28.3203125,-10.25390625,-17.578125
7.77734375,-29.296875,-31.73828125,-14.6484375,-32.2265625
7.78125,-12.20703125,-30.76171875,-16.11328125,-20.99609375
7.78515625,3.41796875,-27.83203125,-8.30078125,-10.7421875
7.7890625,-3.90625,-31.73828125,-9.27734375,9.27734375
7.79296875,-14.16015625,-30.2734375,-11.23046875,6.34765625
7.796875,-43.9453125,-32.2265625,-8.7890625,-20.99609375
7.80078125,-63.96484375,-34.1796875,-6.8359375,-46.875
7.8046875,-37.59765625,-38.57421875,-10.25390625,-18.5546875
7.80859375,-25.87890625,-39.55078125,-14.16015625,-21.97265625
7.8125,-68.359375,-37.59765625,-15.625,-44.921875
7.81640625,-70.3125,-42.48046875,-15.13671875,-62.5
7.8203125,-50.29296875,-43.9453125,-11.23046875,-44.43359375
7.82421875,-75.68359375,-46.875,-12.6953125,-41.9921875
7.828125,-61.5234375,-47.8515625,-13.671875,-61.5234375
7.83203125,-58.59375,-42.96875,-9.27734375,-48.828125
7.8359375,-81.0546875,-41.50390625,-6.34765625,-55.6640625
7.83984375,-66.40625,-44.43359375,-10.25390625,-49.8046875
7.84375,-66.89453125,-45.8984375,-18.06640625,-57.6171875
7.84765625,-72.265625,-46.875,-23.92578125,-46.875
7.8515625,-57.6171875,-44.43359375,-20.5078125,-29.78515625
7.85546875,-46.875,-40.52734375,-16.11328125,-27.83203125
7.859375,-32.2265625,-41.015625,-20.01953125,-15.13671875
7.86328125,-40.0390625,-42.96875,-27.34375,-18.5546875
7.8671875,-35.64453125,-45.8984375,-26.85546875,-19.04296875
7.87109375,-28.80859375,-42.48046875,-22.4609375,-21.97265625
7.875,-38.57421875,-38.0859375,-23.92578125,-20.01953125
7.87890625,-29.78515625,-36.1328125,-25.87890625,-8.30078125
7.8828125,-27.34375,-44.43359375,-30.2734375,-21.484375
7.88671875,-38.0859375,-45.8984375,-31.73828125,-20.99609375
7.890625,-26.3671875,-38.0859375,-28.3203125,-5.37109375
7.89453125,-5.37109375,-33.69140625,-27.34375,-9.765625
7.8984375,-15.13671875,-35.15625,-29.78515625,-14.6484375
7.90234375,-14.6484375,-36.1328125,-25.390625,-2.9296875
7.90625,-24.4140625,-32.71484375,-23.4375,7.32421875
7.91015625,-59.08203125,-36.1328125,-28.80859375,16.6015625
7.9140625,-18.06640625,-40.0390625,-30.2734375,-12.6953125
7.91796875,9.27734375,-32.71484375,-28.3203125,-12.6953125
7.921875,11.23046875,-22.94921875,-20.01953125,20.99609375
7.92578125,20.99609375,-21.97265625,-13.671875,21.484375
7.9296875,39.55078125,-28.3203125,-13.671875,23.4375
7.93359375,16.11328125,-35.15625,-27.34375,15.13671875
7.9375,-34.66796875,-37.59765625,-32.71484375,-0.48828125
7.94140625,-12.6953125,-39.0625,-30.2734375,15.13671875
7.9453125,-4.8828125,-39.0625,-30.2734375,10.7421875
7.94921875,-17.578125,-37.109375,-27.83203125,-3.41796875
7.953125,-9.27734375,-39.55078125,-31.25,2.44140625
7.95703125,-21.484375,-40.52734375,-34.1796875,11.71875
7.9609375,-6.8359375,-37.59765625,-31.73828125,-1.953125
7.96484375,9.765625,-37.59765625,-25.390625,-14.6484375
7.96875,-16.6015625,-39.55078125,-27.34375,2.9296875
7.97265625,-15.625,-34.1796875,-29.78515625,1.953125
7.9765625,-8.7890625,-34.1796875,-24.4140625,2.44140625
7.98046875,-26.3671875,-36.1328125,-24.4140625,14.6484375
7.984375,-44.921875,-26.3671875,-25.390625,5.859375
7.98828125,-20.99609375,-28.80859375,-26.85546875,-21.97265625
7.9921875,-9.27734375,-37.109375,-34.66796875,-18.5546875
7.99609375,-23.4375,-36.62109375,-35.64453125,-17.08984375
8.0,-33.69140625,-35.15625,-38.0859375,-17.08984375
8.00390625,13.18359375,-27.83203125,-35.15625,8.7890625
8.0078125,7.8125,-24.4140625,-29.296875,26.3671875
8.01171875,-28.3203125,-26.3671875,-22.4609375,3.41796875
8.015625,-20.99609375,-27.34375,-30.76171875,-5.859375
8.01953125,-4.39453125,-27.34375,-34.66796875,3.90625
8.0234375,-3.41796875,-24.4140625,-28.80859375,-2.9296875
8.02734375,-15.13671875,-20.01953125,-25.87890625,-1.46484375
8.03125,-11.71875,-21.97265625,-27.83203125,-13.671875
8.03515625,-27.83203125,-26.85546875,-28.80859375,0.48828125
8.0390625,-12.6953125,-25.390625,-28.3203125,-25.87890625
8.04296875,-4.8828125,-23.92578125,-30.2734375,-32.2265625
8.046875,-18.06640625,-21.484375,-32.2265625,-10.7421875
8.05078125,-16.11328125,-23.4375,-30.76171875,-20.01953125
8.0546875,0.48828125,-24.4140625,-26.85546875,-26.85546875
8.05859375,7.32421875,-21.97265625,-26.3671875,-12.20703125
8.0625,-19.04296875,-24.4140625,-26.85546875,-2.44140625
8.06640625,-26.3671875,-23.4375,-24.90234375,-20.01953125
8.0703125,-12.6953125,-18.5546875,-24.90234375,-20.5078125
8.07421875,-7.32421875,-18.06640625,-24.4140625,-14.16015625
8.078125,-5.859375,-23.92578125,-25.87890625,-3.90625
8.08203125,-11.71875,-24.4140625,-29.78515625,8.30078125
8.0859375,-18.5546875,-23.92578125,-33.69140625,16.11328125
8.08984375,-30.2734375,-22.4609375,-28.80859375,1.953125
8.09375,-21.97265625,-23.92578125,-29.78515625,-4.8828125
8.09765625,4.8828125,-21.484375,-30.2734375,-16.11328125
8.1015625,-10.7421875,-20.5078125,-25.87890625,-28.3203125
8.10546875,-18.06640625,-24.90234375,-30.2734375,-18.5546875
8.109375,-12.20703125,-24.4140625,-29.78515625,5.859375
8.11328125,-28.3203125,-22.94921875,-30.76171875,-3.90625
8.1171875,-37.59765625,-25.390625,-29.296875,-20.5078125
8.12109375,-31.73828125,-31.73828125,-30.2734375,-15.625
8.125,-22.4609375,-35.15625,-31.73828125,-16.11328125
8.12890625,-12.6953125,-28.3203125,-32.71484375,-15.13671875
