Timestamp,TP9,AF7,AF8,TP10
120.01171875,-57.12890625,-25.390625,-59.08203125,-41.015625
120.015625,-4.8828125,-28.3203125,-53.7109375,-9.27734375
120.01953125,-10.7421875,-34.66796875,-37.59765625,-21.97265625
120.0234375,-61.5234375,-41.9921875,-31.73828125,-31.73828125
120.02734375,-109.375,-41.50390625,-35.64453125,-93.75
120.03125,-105.46875,-47.8515625,-39.0625,-91.796875
120.03515625,-79.58984375,-46.38671875,-36.62109375,-97.16796875
120.0390625,-99.12109375,-43.9453125,-33.203125,-83.984375
120.04296875,-119.62890625,-49.8046875,-38.57421875,-70.80078125
120.046875,-112.3046875,-51.26953125,-38.57421875,-125.48828125
120.05078125,-101.07421875,-47.36328125,-40.52734375,-96.19140625
120.0546875,-114.74609375,-41.50390625,-37.59765625,-83.0078125
120.05859375,-79.58984375,-38.0859375,-32.2265625,-92.28515625
120.0625,-80.56640625,-38.0859375,-32.2265625,-42.48046875
120.06640625,-102.5390625,-36.62109375,-32.71484375,-52.24609375
120.0703125,-67.87109375,-36.62109375,-26.85546875,-63.4765625
120.07421875,-80.56640625,-41.50390625,-28.3203125,-35.15625
120.078125,-78.125,-44.921875,-35.15625,-53.22265625
120.08203125,-64.453125,-41.015625,-39.55078125,-73.73046875
120.0859375,-88.8671875,-33.203125,-38.0859375,-78.125
120.08984375,-70.80078125,-33.203125,-30.2734375,-41.015625
120.09375,-88.8671875,-35.15625,-32.71484375,-43.45703125
120.09765625,-88.8671875,-39.55078125,-35.64453125,-57.6171875
120.1015625,-43.9453125,-40.0390625,-36.1328125,-61.03515625
120.10546875,-82.51953125,-35.15625,-37.109375,-58.10546875
120.109375,-103.02734375,-36.62109375,-40.0390625,-45.41015625
120.11328125,-56.640625,-36.62109375,-44.43359375,-53.7109375
120.1171875,-67.87109375,-35.15625,-46.875,-56.15234375
120.12109375,-74.70703125,-36.1328125,-45.41015625,-83.984375
120.125,-56.640625,-32.71484375,-40.0390625,-68.84765625
120.12890625,-64.453125,-32.71484375,-38.0859375,-19.53125
120.1328125,-53.22265625,-36.1328125,-42.96875,-32.2265625
120.13671875,-40.0390625,-38.57421875,-43.9453125,-63.4765625
120.140625,-63.4765625,-38.0859375,-44.921875,-69.3359375
120.14453125,-45.41015625,-36.1328125,-46.875,-75.68359375
120.1484375,-49.31640625,-33.203125,-48.33984375,-67.87109375
120.15234375,-70.3125,-35.64453125,-50.29296875,-60.05859375
120.15625,-29.78515625,-42.48046875,-46.875,-52.24609375
120.16015625,-54.19921875,-37.59765625,-43.45703125,-35.15625
120.1640625,-93.26171875,-33.69140625,-44.921875,-33.69140625
120.16796875,-60.05859375,-35.15625,-45.8984375,-45.8984375
120.171875,-34.1796875,-34.1796875,-46.875,-44.43359375
120.17578125,-43.9453125,-39.0625,-43.9453125,-36.62109375
120.1796875,-43.9453125,-46.875,-37.109375,-53.22265625
120.18359375,-25.390625,-43.45703125,-36.1328125,-49.31640625
120.1875,-67.3828125,-37.109375,-38.57421875,-49.8046875
120.19140625,-104.98046875,-36.62109375,-41.50390625,-69.82421875
120.1953125,-70.3125,-42.96875,-43.45703125,-68.359375
120.19921875,-53.22265625,-47.8515625,-43.45703125,-66.89453125
120.203125,-46.875,-48.33984375,-44.921875,-73.73046875
120.20703125,-51.26953125,-47.8515625,-48.828125,-53.22265625
120.2109375,-70.3125,-50.78125,-46.875,-20.01953125
120.21484375,-61.5234375,-51.26953125,-41.9921875,-36.1328125
120.21875,-68.359375,-45.8984375,-42.96875,-83.984375
120.22265625,-51.26953125,-46.875,-39.55078125,-64.453125
120.2265625,-46.875,-47.8515625,-39.0625,-56.640625
120.23046875,-68.359375,-41.9921875,-41.9921875,-72.265625
120.234375,-62.5,-45.41015625,-37.109375,-21.97265625
120.23828125,-62.5,-50.78125,-42.48046875,-49.8046875
120.2421875,-47.8515625,-45.41015625,-50.78125,-109.375
120.24609375,-71.2890625,-41.015625,-44.921875,-62.01171875
120.25,-63.96484375,-38.0859375,-39.0625,-84.47265625
120.25390625,-35.15625,-39.0625,-36.1328125,-106.4453125
120.2578125,-76.171875,-43.45703125,-41.015625,-113.28125
120.26171875,-76.171875,-48.33984375,-40.52734375,-86.9140625
120.265625,-80.078125,-49.8046875,-39.55078125,-80.56640625
120.26953125,-45.8984375,-47.36328125,-54.19921875,-116.2109375
120.2734375,-0.48828125,-38.57421875,-58.59375,-73.73046875
120.27734375,-41.9921875,-31.73828125,-48.33984375,-72.75390625
120.28125,-45.41015625,-36.62109375,-37.109375,-129.8828125
120.28515625,-75.68359375,-43.9453125,-33.203125,-141.6015625
120.2890625,-84.47265625,-46.875,-33.203125,-128.41796875
120.29296875,-90.33203125,-51.26953125,-27.83203125,-98.6328125
120.296875,-187.5,-55.17578125,-28.3203125,-133.7890625
120.30078125,-202.63671875,-62.5,-37.59765625,-224.12109375
120.3046875,-206.54296875,-70.3125,-33.69140625,-220.703125
120.30859375,-255.859375,-65.91796875,-22.94921875,-281.25
120.3125,-284.66796875,-70.80078125,-20.5078125,-295.8984375
120.31640625,-336.42578125,-87.890625,-18.5546875,-250.48828125
120.3203125,-345.703125,-90.8203125,-19.53125,-299.31640625
120.32421875,-337.890625,-91.30859375,-22.4609375,-314.94140625
120.328125,-353.515625,-87.40234375,-16.11328125,-332.03125
120.33203125,-356.4453125,-89.35546875,-14.16015625,-306.15234375
120.3359375,-336.42578125,-98.14453125,-12.6953125,-280.2734375
120.33984375,-334.9609375,-95.703125,-7.8125,-282.71484375
120.34375,-286.1328125,-92.7734375,-10.25390625,-260.25390625
120.34765625,-333.984375,-100.5859375,-13.18359375,-243.65234375
120.3515625,-330.56640625,-106.4453125,-13.18359375,-244.140625
120.35546875,-290.52734375,-106.4453125,-9.27734375,-228.515625
120.359375,-275.390625,-108.88671875,-13.671875,-193.84765625
120.36328125,-262.20703125,-107.421875,-12.20703125,-172.8515625
120.3671875,-240.234375,-96.6796875,-3.41796875,-169.43359375
120.37109375,-215.8203125,-100.5859375,-6.34765625,-157.2265625
120.375,-227.5390625,-103.515625,-11.71875,-177.24609375
120.37890625,-225.09765625,-102.5390625,-13.18359375,-125.0
120.3828125,-184.5703125,-108.88671875,-13.18359375,-122.0703125
120.38671875,-158.203125,-107.421875,-18.5546875,-136.23046875
120.390625,-202.1484375,-107.421875,-18.06640625,-95.21484375
120.39453125,-173.33984375,-110.83984375,-16.6015625,-104.4921875
120.3984375,-114.74609375,-107.91015625,-22.4609375,-77.1484375
120.40234375,-110.3515625,-101.07421875,-24.4140625,-38.57421875
120.40625,-109.86328125,-93.75,-24.90234375,13.18359375
120.41015625,-103.02734375,-88.8671875,-26.3671875,-1.953125
120.4140625,-95.21484375,-85.9375,-38.57421875,-85.9375
120.41796875,-42.96875,-77.63671875,-36.62109375,-79.58984375
120.421875,-68.359375,-74.21875,-27.34375,-57.12890625
120.42578125,-101.07421875,-72.265625,-29.296875,-44.43359375
120.4296875,-64.94140625,-67.87109375,-30.76171875,-25.87890625
120.43359375,-27.83203125,-64.94140625,-34.1796875,-20.01953125
120.4375,-49.31640625,-65.91796875,-35.15625,-34.66796875
120.44140625,-48.828125,-59.08203125,-32.2265625,-14.6484375
120.4453125,-60.546875,-50.29296875,-34.1796875,-13.671875
120.44921875,-79.58984375,-48.828125,-36.1328125,-53.22265625
120.453125,-24.90234375,-50.78125,-31.73828125,-54.19921875
120.45703125,-37.109375,-56.15234375,-31.25,-41.50390625
120.4609375,-57.6171875,-52.734375,-32.71484375,-28.3203125
120.46484375,-36.62109375,-50.29296875,-33.69140625,32.2265625
120.46875,-49.8046875,-50.29296875,-39.55078125,8.7890625
120.47265625,-42.48046875,-41.015625,-38.57421875,-43.9453125
120.4765625,-28.3203125,-38.0859375,-35.64453125,-6.34765625
120.48046875,-25.87890625,-40.52734375,-33.69140625,-16.6015625
120.484375,-27.34375,-41.015625,-26.85546875,-58.59375
120.48828125,-36.1328125,-40.52734375,-32.2265625,-43.9453125
120.4921875,-25.390625,-39.55078125,-39.0625,-54.6875
120.49609375,-35.15625,-42.96875,-36.1328125,-34.66796875
120.5,-11.23046875,-44.43359375,-27.83203125,13.671875
120.50390625,-4.8828125,-42.96875,-25.87890625,1.46484375
120.5078125,-34.1796875,-43.9453125,-30.76171875,-12.20703125
120.51171875,-24.90234375,-42.48046875,-32.2265625,-6.34765625
120.515625,-18.06640625,-40.52734375,-31.73828125,-28.3203125
120.51953125,-32.2265625,-46.38671875,-33.203125,-2.9296875
120.5234375,-31.25,-41.015625,-29.296875,2.44140625
120.52734375,1.953125,-42.48046875,-29.296875,-38.0859375
120.53125,-27.83203125,-52.734375,-28.80859375,-0.48828125
120.53515625,-56.15234375,-43.45703125,-24.90234375,-34.66796875
120.5390625,-24.4140625,-29.296875,-33.203125,-31.73828125
120.54296875,27.83203125,-22.94921875,-39.0625,45.8984375
120.546875,34.1796875,-21.484375,-32.71484375,45.8984375
120.55078125,-22.94921875,-30.76171875,-29.78515625,-16.6015625
120.5546875,-49.8046875,-41.50390625,-28.3203125,-46.875
120.55859375,-62.5,-44.921875,-30.76171875,7.8125
120.5625,-74.70703125,-42.96875,-33.69140625,-35.15625
120.56640625,-62.01171875,-48.33984375,-30.76171875,-63.4765625
120.5703125,-55.6640625,-54.6875,-26.85546875,-27.34375
120.57421875,-49.31640625,-56.640625,-21.97265625,-9.27734375
120.578125,-45.41015625,-58.59375,-35.15625,-22.4609375
120.58203125,-55.6640625,-60.05859375,-42.48046875,-6.8359375
120.5859375,-35.64453125,-60.05859375,-38.0859375,-30.2734375
120.58984375,-34.66796875,-59.08203125,-41.015625,-46.875
120.59375,-55.17578125,-58.59375,-39.0625,1.953125
120.59765625,-69.3359375,-56.15234375,-42.96875,-25.87890625
120.6015625,-29.296875,-52.24609375,-46.875,-51.7578125
120.60546875,-24.4140625,-48.828125,-40.0390625,-32.2265625
120.609375,-102.5390625,-50.78125,-43.45703125,-38.0859375
120.61328125,-69.3359375,-50.78125,-42.96875,-43.9453125
120.6171875,-23.92578125,-47.36328125,-38.0859375,-41.9921875
120.62109375,-44.43359375,-43.9453125,-42.48046875,-38.0859375
120.625,-41.9921875,-45.8984375,-40.52734375,-32.2265625
120.62890625,-3.90625,-45.8984375,-39.55078125,28.3203125
120.6328125,-57.6171875,-43.9453125,-48.33984375,-13.18359375
120.63671875,-72.75390625,-43.45703125,-46.875,-76.66015625
120.640625,-25.390625,-39.0625,-43.45703125,-20.5078125
120.64453125,9.765625,-41.9921875,-42.48046875,7.8125
120.6484375,-33.69140625,-44.921875,-44.43359375,-25.87890625
120.65234375,-54.19921875,-42.96875,-50.78125,-66.40625
120.65625,-1.46484375,-44.43359375,-47.8515625,-45.8984375
120.66015625,-5.859375,-42.96875,-45.41015625,-35.64453125
120.6640625,-1.953125,-43.45703125,-42.96875,-6.34765625
120.66796875,-26.85546875,-46.38671875,-41.50390625,9.27734375
120.671875,-13.671875,-48.828125,-46.875,-23.92578125
120.67578125,-12.6953125,-48.33984375,-52.24609375,-36.1328125
120.6796875,-69.3359375,-52.24609375,-52.24609375,-22.4609375
120.68359375,-74.70703125,-53.22265625,-51.26953125,-21.484375
120.6875,-47.36328125,-48.828125,-46.38671875,-36.62109375
120.69140625,-59.08203125,-50.29296875,-40.52734375,-47.8515625
120.6953125,-24.4140625,-50.78125,-39.0625,-37.109375
120.69921875,-15.625,-49.31640625,-39.0625,-32.2265625
120.703125,-32.2265625,-45.41015625,-40.0390625,-46.38671875
120.70703125,-27.83203125,-44.921875,-40.0390625,-35.64453125
120.7109375,-34.1796875,-42.96875,-36.62109375,-41.50390625
120.71484375,-65.4296875,-42.96875,-41.015625,-38.57421875
120.71875,-59.5703125,-40.52734375,-41.50390625,-44.43359375
120.72265625,-42.96875,-43.45703125,-38.57421875,-79.1015625
120.7265625,-101.07421875,-52.734375,-43.45703125,-67.87109375
120.73046875,-88.37890625,-48.33984375,-41.50390625,-73.2421875
120.734375,-111.328125,-41.50390625,-39.55078125,-109.86328125
120.73828125,-68.359375,-40.0390625,-43.9453125,-124.51171875
120.7421875,-52.734375,-33.203125,-51.26953125,-79.58984375
120.74609375,-123.53515625,-31.73828125,-50.78125,-73.2421875
120.75,-156.25,-39.0625,-41.9921875,-140.13671875
120.75390625,-201.171875,-39.0625,-41.015625,-182.12890625
120.7578125,-140.13671875,-33.69140625,-42.96875,-183.59375
120.76171875,-104.4921875,-27.83203125,-36.1328125,-124.0234375
120.765625,-125.0,-28.80859375,-27.34375,-132.8125
120.76953125,-142.08984375,-32.2265625,-26.85546875,-139.6484375
120.7734375,-170.41015625,-30.2734375,-26.85546875,-121.58203125
120.77734375,-160.64453125,-32.2265625,-23.4375,-92.28515625
120.78125,-135.7421875,-33.69140625,-19.53125,-76.66015625
120.78515625,-109.86328125,-27.83203125,-20.5078125,-76.66015625
120.7890625,-77.63671875,-24.4140625,-16.11328125,-60.546875
120.79296875,-59.5703125,-23.92578125,-14.6484375,-19.53125
120.796875,-59.08203125,-28.80859375,-18.06640625,28.80859375
120.80078125,-15.13671875,-37.59765625,-23.92578125,-10.7421875
120.8046875,-21.97265625,-41.50390625,-26.3671875,-4.39453125
120.80859375,-16.11328125,-41.9921875,-26.85546875,-5.859375
120.8125,15.625,-42.96875,-27.83203125,-2.44140625
120.81640625,-17.08984375,-43.45703125,-21.97265625,52.24609375
120.8203125,27.83203125,-46.875,-23.4375,80.56640625
120.82421875,54.6875,-48.33984375,-26.3671875,67.3828125
120.828125,116.69921875,-41.015625,-24.90234375,164.0625
120.83203125,125.48828125,-36.62109375,-29.296875,194.3359375
120.8359375,100.09765625,-33.203125,-28.80859375,100.5859375
120.83984375,142.08984375,-27.83203125,-29.296875,137.6953125
120.84375,193.359375,-20.99609375,-22.94921875,195.3125
120.84765625,199.21875,-13.18359375,-22.94921875,194.3359375
120.8515625,184.08203125,-13.18359375,-28.3203125,201.66015625
120.85546875,215.33203125,-13.18359375,-25.390625,236.81640625
120.859375,265.13671875,-13.18359375,-25.87890625,302.734375
120.86328125,232.91015625,-13.671875,-29.78515625,335.44921875
120.8671875,182.12890625,-18.06640625,-36.1328125,211.42578125
120.87109375,231.93359375,-23.92578125,-36.1328125,203.125
120.875,246.09375,-20.99609375,-31.73828125,249.51171875
120.87890625,253.41796875,-17.08984375,-36.1328125,231.93359375
120.8828125,229.98046875,-17.08984375,-40.52734375,233.88671875
120.88671875,229.00390625,-18.5546875,-36.62109375,236.328125
120.890625,255.37109375,-20.5078125,-40.0390625,244.140625
120.89453125,276.85546875,-16.6015625,-44.43359375,248.046875
120.8984375,235.83984375,-19.53125,-43.9453125,272.94921875
120.90234375,187.01171875,-23.4375,-44.43359375,225.09765625
120.90625,227.5390625,-22.94921875,-50.78125,187.01171875
120.91015625,230.95703125,-23.92578125,-52.734375,225.5859375
120.9140625,171.38671875,-24.90234375,-47.8515625,274.90234375
120.91796875,114.2578125,-29.296875,-43.45703125,241.69921875
120.921875,236.81640625,-28.3203125,-44.43359375,183.10546875
120.92578125,209.47265625,-27.34375,-46.38671875,212.40234375
120.9296875,103.02734375,-30.76171875,-44.921875,191.89453125
120.93359375,130.37109375,-38.0859375,-46.875,164.55078125
120.9375,127.9296875,-36.62109375,-51.26953125,168.45703125
120.94140625,116.69921875,-26.3671875,-53.7109375,174.31640625
120.9453125,148.4375,-26.85546875,-53.22265625,141.6015625
120.94921875,143.06640625,-27.34375,-48.828125,129.8828125
120.953125,108.3984375,-24.4140625,-45.41015625,216.30859375
120.95703125,104.98046875,-27.34375,-41.9921875,178.22265625
120.9609375,81.0546875,-27.34375,-38.0859375,67.3828125
120.96484375,80.56640625,-28.80859375,-40.0390625,124.0234375
120.96875,58.59375,-29.78515625,-39.0625,121.58203125
120.97265625,35.15625,-25.87890625,-40.52734375,109.375
120.9765625,119.140625,-28.80859375,-42.96875,157.71484375
120.98046875,76.171875,-28.3203125,-41.50390625,110.83984375
120.984375,-8.7890625,-24.4140625,-43.45703125,83.49609375
120.98828125,21.484375,-27.83203125,-47.36328125,81.54296875
120.9921875,46.875,-25.390625,-47.8515625,94.7265625
120.99609375,11.71875,-26.3671875,-47.8515625,84.9609375
121.0,41.50390625,-29.78515625,-46.875,116.2109375
121.00390625,73.73046875,-19.53125,-43.45703125,147.4609375
121.0078125,65.91796875,-20.01953125,-40.0390625,117.1875
121.01171875,45.8984375,-21.484375,-38.57421875,116.2109375
121.015625,47.8515625,-16.6015625,-39.55078125,86.42578125
121.01953125,22.4609375,-20.5078125,-37.59765625,107.421875
121.0234375,-34.66796875,-27.83203125,-38.57421875,62.98828125
121.02734375,-10.7421875,-29.296875,-41.50390625,73.2421875
121.03125,16.6015625,-27.34375,-38.57421875,85.44921875
121.03515625,36.1328125,-28.3203125,-34.1796875,57.12890625
121.0390625,20.5078125,-28.3203125,-37.109375,81.54296875
121.04296875,1.953125,-29.296875,-38.0859375,78.61328125
121.046875,37.59765625,-27.83203125,-33.69140625,76.66015625
121.05078125,24.4140625,-27.34375,-28.3203125,61.03515625
121.0546875,7.8125,-23.92578125,-31.73828125,91.796875
121.05859375,55.17578125,-17.08984375,-37.109375,105.46875
121.0625,18.5546875,-20.99609375,-32.2265625,71.2890625
121.06640625,34.66796875,-20.5078125,-33.203125,33.203125
121.0703125,8.30078125,-19.53125,-33.69140625,22.94921875
121.07421875,-19.53125,-18.5546875,-38.0859375,-2.44140625
121.078125,54.19921875,-20.01953125,-41.50390625,-21.484375
121.08203125,-0.48828125,-28.3203125,-34.66796875,39.0625
121.0859375,17.08984375,-29.78515625,-37.109375,20.01953125
121.08984375,-10.7421875,-27.83203125,-42.96875,3.41796875
121.09375,-14.16015625,-27.34375,-40.0390625,31.73828125
121.09765625,35.15625,-28.3203125,-36.1328125,39.55078125
121.1015625,24.4140625,-30.76171875,-40.52734375,49.8046875
121.10546875,-27.83203125,-40.52734375,-41.9921875,38.57421875
121.109375,12.6953125,-43.9453125,-45.41015625,-10.25390625
121.11328125,-17.08984375,-42.48046875,-46.875,24.4140625
121.1171875,-52.734375,-37.59765625,-45.8984375,-4.8828125
121.12109375,22.94921875,-35.15625,-50.78125,-34.1796875
121.125,-10.7421875,-37.109375,-48.33984375,-20.5078125
121.12890625,-42.48046875,-39.55078125,-51.26953125,-22.94921875
121.1328125,-1.46484375,-36.62109375,-49.8046875,11.23046875
121.13671875,17.08984375,-37.109375,-46.38671875,-25.390625
121.140625,-12.20703125,-41.50390625,-54.6875,-47.8515625
121.14453125,-50.29296875,-43.9453125,-58.59375,-20.5078125
121.1484375,-20.01953125,-44.921875,-59.5703125,-14.16015625
121.15234375,-0.9765625,-42.48046875,-53.22265625,22.4609375
121.15625,-67.3828125,-35.64453125,-50.29296875,-35.15625
121.16015625,-77.1484375,-36.1328125,-55.6640625,-16.11328125
121.1640625,-2.44140625,-39.55078125,-53.22265625,46.38671875
121.16796875,-7.8125,-38.0859375,-47.8515625,-30.76171875
121.171875,-35.64453125,-38.0859375,-47.8515625,-38.57421875
121.17578125,-1.46484375,-40.52734375,-55.6640625,-5.859375
121.1796875,41.015625,-37.109375,-53.22265625,-5.859375
121.18359375,-13.18359375,-33.203125,-42.96875,7.8125
121.1875,-16.6015625,-32.71484375,-41.9921875,12.20703125
121.19140625,-31.73828125,-31.73828125,-43.45703125,-14.6484375
121.1953125,-36.1328125,-35.64453125,-45.8984375,9.765625
121.19921875,-37.59765625,-40.52734375,-48.828125,-7.8125
121.203125,-20.99609375,-36.1328125,-49.31640625,-81.0546875
121.20703125,-25.390625,-32.2265625,-52.734375,-54.6875
121.2109375,15.625,-32.2265625,-58.59375,-37.59765625
121.21484375,26.3671875,-35.15625,-54.6875,11.71875
121.21875,-11.71875,-38.57421875,-57.12890625,-11.71875
121.22265625,-26.3671875,-35.64453125,-60.546875,-94.7265625
121.2265625,-25.87890625,-37.109375,-55.17578125,-66.89453125
121.23046875,-24.4140625,-38.0859375,-54.6875,-21.97265625
121.234375,-82.51953125,-34.66796875,-51.7578125,-27.34375
121.23828125,-32.71484375,-31.25,-47.36328125,-38.0859375
121.2421875,22.94921875,-28.80859375,-51.7578125,-55.17578125
121.24609375,4.39453125,-27.83203125,-50.78125,-33.203125
121.25,-8.7890625,-33.203125,-53.22265625,-28.80859375
121.25390625,-20.5078125,-38.0859375,-54.6875,-47.8515625
121.2578125,-63.4765625,-41.50390625,-56.15234375,-16.11328125
121.26171875,-31.25,-46.875,-61.03515625,-6.8359375
121.265625,-17.578125,-43.9453125,-58.59375,-71.2890625
121.26953125,-62.98828125,-45.41015625,-61.03515625,-50.29296875
121.2734375,-61.03515625,-43.9453125,-61.5234375,14.6484375
121.27734375,-2.44140625,-39.55078125,-59.5703125,-49.8046875
121.28125,-9.27734375,-36.1328125,-54.19921875,-90.33203125
121.28515625,-57.12890625,-34.1796875,-55.6640625,-51.7578125
121.2890625,3.41796875,-35.64453125,-64.453125,-59.08203125
121.29296875,-26.85546875,-41.50390625,-64.94140625,-26.85546875
121.296875,-60.05859375,-46.875,-62.5,1.953125
121.30078125,-30.2734375,-42.96875,-64.453125,-34.66796875
121.3046875,-16.6015625,-41.50390625,-64.94140625,-62.98828125
121.30859375,-38.0859375,-45.41015625,-62.01171875,-32.71484375
121.3125,-59.5703125,-42.48046875,-62.5,-30.2734375
121.31640625,-36.62109375,-40.52734375,-64.453125,-53.22265625
121.3203125,-36.1328125,-40.0390625,-60.546875,-47.36328125
121.32421875,-62.98828125,-36.62109375,-61.03515625,-92.7734375
121.328125,20.99609375,-31.25,-62.01171875,-39.55078125
121.33203125,0.0,-37.59765625,-61.03515625,-11.23046875
121.3359375,-75.1953125,-50.78125,-64.94140625,-95.21484375
121.33984375,-48.828125,-52.24609375,-67.3828125,-105.95703125
121.34375,-41.015625,-52.734375,-62.98828125,-51.26953125
121.34765625,-46.875,-58.59375,-63.96484375,-45.41015625
121.3515625,-47.8515625,-55.17578125,-64.94140625,-51.7578125
121.35546875,-38.0859375,-47.36328125,-58.10546875,-43.45703125
121.359375,-27.83203125,-50.78125,-56.640625,-45.41015625
121.36328125,-26.85546875,-53.22265625,-53.7109375,-27.34375
121.3671875,-20.5078125,-51.26953125,-57.12890625,-44.43359375
121.37109375,-5.37109375,-56.15234375,-60.546875,-41.9921875
121.375,-81.0546875,-58.59375,-63.96484375,-65.91796875
121.37890625,-52.24609375,-53.22265625,-68.359375,20.99609375
121.3828125,-7.8125,-48.33984375,-66.89453125,21.484375
121.38671875,-58.59375,-46.875,-62.01171875,-114.2578125
121.390625,-30.76171875,-48.828125,-58.10546875,-68.359375
121.39453125,-21.97265625,-50.78125,-60.546875,-27.34375
121.3984375,-33.203125,-46.38671875,-61.03515625,-36.1328125
121.40234375,-22.94921875,-44.921875,-55.17578125,-40.0390625
121.40625,21.97265625,-43.9453125,-49.8046875,-35.64453125
121.41015625,-21.97265625,-39.0625,-52.24609375,-16.11328125
121.4140625,-50.78125,-39.0625,-54.6875,-55.17578125
121.41796875,7.8125,-46.38671875,-59.5703125,-49.8046875
121.421875,-33.69140625,-51.26953125,-61.5234375,36.1328125
121.42578125,-56.640625,-56.15234375,-64.453125,-45.8984375
121.4296875,-30.76171875,-57.6171875,-67.87109375,-97.65625
121.43359375,-21.97265625,-51.7578125,-63.4765625,-54.6875
121.4375,-29.78515625,-55.17578125,-59.08203125,-57.12890625
121.44140625,-25.390625,-57.12890625,-58.10546875,-56.15234375
121.4453125,-47.8515625,-51.26953125,-54.19921875,-24.4140625
121.44921875,-34.1796875,-50.29296875,-49.8046875,-54.19921875
121.453125,-3.41796875,-48.828125,-54.6875,-13.671875
121.45703125,-33.69140625,-50.78125,-60.05859375,15.13671875
121.4609375,-31.73828125,-52.24609375,-64.453125,-82.03125
121.46484375,-16.11328125,-52.734375,-66.40625,-109.375
121.46875,-41.50390625,-50.29296875,-59.5703125,-48.828125
121.47265625,-49.8046875,-43.45703125,-51.26953125,-25.87890625
121.4765625,-40.52734375,-40.52734375,-51.7578125,-81.0546875
121.48046875,-51.26953125,-42.96875,-53.22265625,-46.875
121.484375,-15.625,-41.50390625,-50.78125,-55.17578125
121.48828125,-34.66796875,-40.52734375,-48.828125,-68.359375
121.4921875,-52.24609375,-45.8984375,-51.26953125,-53.22265625
121.49609375,-14.16015625,-46.38671875,-42.48046875,-47.8515625
121.5,0.48828125,-41.9921875,-36.1328125,-26.85546875
121.50390625,-8.30078125,-47.36328125,-35.15625,12.20703125
121.5078125,-87.40234375,-54.19921875,-34.66796875,-18.06640625
121.51171875,-27.83203125,-53.22265625,-43.9453125,-52.24609375
121.515625,-0.9765625,-47.8515625,-50.78125,0.48828125
121.51953125,-120.60546875,-46.38671875,-48.828125,-43.45703125
121.5234375,-122.0703125,-46.875,-50.78125,-106.93359375
121.52734375,-95.703125,-48.33984375,-61.5234375,-122.55859375
121.53125,-154.296875,-51.7578125,-59.08203125,-157.2265625
121.53515625,-154.78515625,-43.45703125,-52.734375,-139.6484375
121.5390625,-146.97265625,-35.64453125,-58.59375,-162.59765625
121.54296875,-227.5390625,-38.57421875,-51.26953125,-230.46875
121.546875,-267.578125,-39.55078125,-53.7109375,-255.859375
121.55078125,-270.5078125,-49.8046875,-63.96484375,-295.41015625
121.5546875,-283.69140625,-57.12890625,-64.94140625,-340.8203125
121.55859375,-257.8125,-44.43359375,-68.359375,-345.21484375
121.5625,-275.87890625,-34.66796875,-61.03515625,-310.05859375
121.56640625,-354.98046875,-30.76171875,-56.15234375,-322.265625
121.5703125,-366.69921875,-28.80859375,-60.05859375,-355.95703125
121.57421875,-349.12109375,-23.92578125,-64.94140625,-374.51171875
121.578125,-353.515625,-23.4375,-68.84765625,-382.8125
121.58203125,-351.5625,-32.2265625,-59.5703125,-376.46484375
121.5859375,-364.74609375,-34.1796875,-60.05859375,-329.1015625
121.58984375,-347.65625,-30.2734375,-72.75390625,-365.234375
121.59375,-279.296875,-27.83203125,-70.80078125,-354.00390625
121.59765625,-277.34375,-26.3671875,-66.89453125,-276.3671875
121.6015625,-282.2265625,-24.90234375,-61.5234375,-301.26953125
121.60546875,-299.8046875,-29.296875,-62.98828125,-316.40625
121.609375,-232.91015625,-29.296875,-60.546875,-252.44140625
121.61328125,-202.63671875,-18.5546875,-48.828125,-187.01171875
121.6171875,-267.578125,-15.625,-46.38671875,-163.0859375
121.62109375,-213.37890625,-21.97265625,-52.24609375,-148.92578125
121.625,-195.3125,-22.4609375,-53.7109375,-150.87890625
121.62890625,-182.6171875,-15.13671875,-46.38671875,-185.546875
121.6328125,-135.25390625,-6.34765625,-38.0859375,-140.625
121.63671875,-104.4921875,-2.44140625,-32.71484375,-163.0859375
121.640625,-144.53125,0.0,-27.83203125,-188.4765625
121.64453125,-152.34375,3.90625,-19.53125,-145.5078125
121.6484375,-79.1015625,-3.41796875,-14.6484375,-132.8125
121.65234375,-51.7578125,-11.71875,-18.5546875,-118.1640625
121.65625,-85.9375,-13.671875,-14.16015625,-95.703125
121.66015625,-70.80078125,-16.11328125,-6.8359375,-106.4453125
121.6640625,-52.734375,-23.4375,-11.71875,-107.91015625
121.66796875,-64.453125,-20.99609375,-15.13671875,-126.953125
121.671875,-20.5078125,-17.08984375,-5.37109375,-73.73046875
121.67578125,-22.94921875,-20.01953125,1.46484375,-18.5546875
121.6796875,-26.3671875,-19.53125,-3.41796875,-84.47265625
121.68359375,8.30078125,-12.6953125,-5.859375,-81.54296875
121.6875,-6.34765625,-17.08984375,-3.90625,-69.3359375
121.69140625,6.8359375,-27.34375,-1.46484375,-64.94140625
121.6953125,38.0859375,-26.3671875,-6.34765625,-57.12890625
121.69921875,8.7890625,-22.94921875,-5.37109375,-26.3671875
121.703125,-12.20703125,-20.01953125,5.859375,-37.59765625
121.70703125,11.23046875,-20.5078125,0.48828125,-51.26953125
121.7109375,18.06640625,-25.390625,-0.48828125,-15.13671875
121.71484375,8.30078125,-25.87890625,3.90625,23.92578125
121.71875,10.7421875,-20.01953125,1.46484375,-10.25390625
121.72265625,49.8046875,-18.5546875,3.90625,-20.99609375
121.7265625,42.48046875,-21.484375,6.8359375,-3.41796875
121.73046875,4.8828125,-21.484375,7.32421875,-12.6953125
121.734375,-2.44140625,-19.04296875,10.25390625,-47.8515625
121.73828125,23.92578125,-20.5078125,10.7421875,-46.875
121.7421875,28.80859375,-19.04296875,2.44140625,-4.39453125
121.74609375,10.7421875,-20.99609375,2.9296875,-21.97265625
121.75,24.4140625,-23.4375,18.5546875,-28.80859375
121.75390625,42.96875,-17.08984375,27.83203125,31.25
121.7578125,73.2421875,-15.625,22.94921875,73.73046875
121.76171875,92.7734375,-25.390625,18.5546875,69.82421875
121.765625,20.99609375,-26.3671875,14.6484375,-25.87890625
121.76953125,30.76171875,-29.296875,13.671875,-53.22265625
121.7734375,49.31640625,-36.1328125,15.13671875,19.53125
121.77734375,5.859375,-33.203125,20.99609375,25.87890625
121.78125,2.44140625,-27.83203125,21.484375,11.71875
121.78515625,71.77734375,-26.3671875,12.6953125,26.85546875
121.7890625,61.03515625,-26.3671875,12.20703125,-66.89453125
121.79296875,-5.859375,-35.15625,7.8125,-13.671875
121.796875,43.45703125,-37.109375,4.39453125,63.4765625
121.80078125,65.4296875,-36.1328125,4.39453125,-12.20703125
121.8046875,57.6171875,-46.38671875,-0.48828125,41.9921875
121.80859375,95.21484375,-45.8984375,-8.7890625,-0.48828125
121.8125,85.44921875,-42.96875,-0.48828125,2.44140625
121.81640625,-15.625,-38.0859375,8.30078125,33.69140625
121.8203125,-36.62109375,-34.1796875,-13.18359375,-105.46875
121.82421875,22.4609375,-41.015625,-2.9296875,-113.76953125
121.828125,-1.953125,-41.50390625,9.27734375,-49.31640625
121.83203125,48.828125,-46.875,3.41796875,11.71875
121.8359375,49.8046875,-55.17578125,14.16015625,1.46484375
121.83984375,39.0625,-50.29296875,11.71875,24.4140625
121.84375,68.359375,-51.26953125,-1.46484375,17.08984375
121.84765625,69.3359375,-53.7109375,2.9296875,52.24609375
121.8515625,52.24609375,-52.734375,7.32421875,26.3671875
121.85546875,-9.765625,-51.26953125,4.8828125,5.859375
121.859375,76.66015625,-50.78125,-4.8828125,105.46875
121.86328125,161.1328125,-66.40625,-2.9296875,27.83203125
121.8671875,60.546875,-81.54296875,6.8359375,4.39453125
121.87109375,62.01171875,-74.21875,8.7890625,52.24609375
121.875,70.80078125,-68.359375,4.39453125,86.9140625
121.87890625,30.76171875,-75.68359375,-0.9765625,73.2421875
121.8828125,39.55078125,-70.80078125,-2.44140625,19.04296875
121.88671875,58.10546875,-64.94140625,-2.9296875,85.9375
121.890625,79.1015625,-71.77734375,-1.953125,117.67578125
121.89453125,95.21484375,-78.61328125,3.41796875,53.22265625
121.8984375,109.86328125,-74.70703125,6.8359375,36.62109375
121.90234375,117.67578125,-68.359375,9.765625,96.6796875
121.90625,79.58984375,-68.359375,15.625,95.703125
121.91015625,46.875,-68.84765625,19.04296875,22.94921875
121.9140625,31.25,-65.4296875,20.99609375,34.1796875
121.91796875,37.109375,-67.87109375,21.484375,58.10546875
121.921875,39.0625,-75.68359375,20.99609375,109.375
121.92578125,47.8515625,-79.58984375,21.97265625,114.2578125
121.9296875,38.57421875,-75.1953125,25.390625,24.90234375
121.93359375,34.66796875,-69.82421875,29.296875,24.90234375
121.9375,72.265625,-65.91796875,33.203125,63.4765625
121.94140625,45.8984375,-63.4765625,34.1796875,75.1953125
121.9453125,-7.8125,-63.96484375,25.87890625,50.29296875
121.94921875,11.23046875,-69.82421875,20.99609375,20.01953125
121.953125,97.16796875,-68.359375,24.4140625,34.1796875
121.95703125,46.38671875,-67.3828125,24.90234375,56.15234375
121.9609375,-36.1328125,-62.01171875,23.92578125,48.828125
121.96484375,1.953125,-54.6875,16.11328125,0.0
121.96875,-15.13671875,-53.22265625,16.11328125,-4.39453125
121.97265625,-2.9296875,-50.78125,22.4609375,-0.48828125
121.9765625,27.83203125,-49.31640625,21.97265625,14.6484375
121.98046875,-5.37109375,-50.78125,9.27734375,4.8828125
121.984375,-24.4140625,-48.828125,7.8125,-27.83203125
121.98828125,2.9296875,-54.6875,8.7890625,-49.31640625
121.9921875,-2.44140625,-62.98828125,7.8125,-13.671875
121.99609375,-3.41796875,-51.26953125,13.671875,3.41796875
122.0,-9.27734375,-44.43359375,17.578125,-24.4140625
122.00390625,-20.5078125,-45.41015625,18.5546875,-10.25390625
122.0078125,9.765625,-42.96875,23.92578125,-46.38671875
122.01171875,-12.6953125,-38.0859375,27.34375,-105.95703125
122.015625,-64.453125,-29.78515625,18.06640625,-98.14453125
122.01953125,-55.17578125,-28.80859375,20.5078125,-92.28515625
122.0234375,-34.66796875,-34.1796875,23.4375,-52.24609375
122.02734375,-19.53125,-36.62109375,20.99609375,-3.90625
122.03125,-19.53125,-36.62109375,24.4140625,-53.7109375
122.03515625,-13.671875,-33.69140625,27.34375,-63.4765625
122.0390625,-43.9453125,-27.83203125,22.94921875,-69.3359375
122.04296875,-26.3671875,-24.4140625,19.53125,-67.87109375
122.046875,-32.2265625,-30.2734375,22.94921875,-34.66796875
122.05078125,-5.859375,-26.3671875,21.484375,-55.6640625
122.0546875,-5.37109375,-12.20703125,20.99609375,-54.6875
122.05859375,-29.296875,-13.18359375,27.34375,-16.11328125
122.0625,-22.4609375,-19.04296875,27.83203125,-66.40625
122.06640625,-12.20703125,-24.4140625,22.94921875,-96.19140625
122.0703125,-30.76171875,-23.4375,19.53125,-60.05859375
122.07421875,-26.85546875,-22.94921875,18.06640625,-46.38671875
122.078125,17.08984375,-30.76171875,18.5546875,-67.3828125
122.08203125,-38.57421875,-26.85546875,17.08984375,-58.10546875
122.0859375,-77.1484375,-23.92578125,15.625,-67.3828125
122.08984375,-64.453125,-32.2265625,13.18359375,-98.14453125
122.09375,-58.10546875,-32.2265625,9.27734375,-111.81640625
122.09765625,-41.9921875,-29.296875,9.27734375,-78.125
122.1015625,-60.546875,-31.73828125,5.37109375,-81.0546875
122.10546875,-43.9453125,-31.25,6.34765625,-83.49609375
122.109375,-46.38671875,-36.1328125,3.90625,-81.0546875
122.11328125,-60.546875,-43.45703125,2.9296875,-87.890625
122.1171875,-71.77734375,-42.96875,4.39453125,-78.61328125
122.12109375,-59.5703125,-41.50390625,5.37109375,-78.61328125
122.125,-73.73046875,-41.50390625,1.953125,-106.93359375
122.12890625,-81.0546875,-44.43359375,0.48828125,-79.1015625
122.1328125,-54.6875,-45.8984375,4.39453125,-73.73046875
122.13671875,-46.38671875,-42.96875,12.20703125,-114.2578125
122.140625,-58.59375,-47.36328125,10.7421875,-124.51171875
122.14453125,-59.08203125,-51.26953125,6.8359375,-147.94921875
122.1484375,-73.2421875,-46.38671875,9.27734375,-117.1875
122.15234375,-81.54296875,-40.52734375,16.11328125,-82.03125
122.15625,-64.94140625,-32.71484375,20.01953125,-92.28515625
122.16015625,-94.23828125,-29.78515625,11.23046875,-66.89453125
122.1640625,-79.1015625,-34.66796875,18.06640625,-60.546875
122.16796875,-26.3671875,-33.203125,18.5546875,-81.54296875
122.171875,-39.55078125,-28.80859375,8.7890625,-61.5234375
122.17578125,-27.34375,-28.3203125,13.18359375,-83.49609375
122.1796875,-63.96484375,-29.296875,10.7421875,-87.890625
122.18359375,-74.70703125,-29.296875,7.32421875,-69.3359375
122.1875,-56.15234375,-38.0859375,1.46484375,-111.328125
122.19140625,-68.359375,-49.31640625,-1.46484375,-115.234375
122.1953125,-72.265625,-50.29296875,-3.90625,-96.6796875
122.19921875,-76.171875,-47.36328125,-5.37109375,-92.28515625
122.203125,-47.36328125,-43.45703125,4.39453125,-108.88671875
122.20703125,-69.82421875,-41.50390625,7.32421875,-130.37109375
122.2109375,-91.30859375,-43.9453125,-0.9765625,-125.9765625
122.21484375,-67.3828125,-47.8515625,-4.39453125,-47.36328125
122.21875,-55.17578125,-45.8984375,-4.8828125,-48.828125
122.22265625,-64.94140625,-41.9921875,-3.41796875,-133.30078125
122.2265625,-59.5703125,-43.45703125,-0.48828125,-118.65234375
122.23046875,-81.54296875,-49.8046875,-2.44140625,-94.7265625
122.234375,-88.8671875,-47.36328125,2.44140625,-84.9609375
122.23828125,-69.3359375,-45.41015625,2.9296875,-117.67578125
122.2421875,-96.6796875,-45.41015625,-2.44140625,-145.01953125
122.24609375,-88.37890625,-45.41015625,2.9296875,-158.69140625
122.25,-45.8984375,-50.78125,8.7890625,-127.44140625
122.25390625,-48.828125,-48.33984375,4.8828125,-116.69921875
122.2578125,-57.12890625,-44.921875,8.30078125,-87.40234375
122.26171875,-68.359375,-48.828125,13.18359375,-63.4765625
122.265625,-71.77734375,-46.38671875,9.765625,-101.07421875
122.26953125,-55.17578125,-42.96875,13.18359375,-83.49609375
122.2734375,-61.5234375,-41.015625,18.06640625,-109.375
122.27734375,-63.4765625,-39.55078125,23.92578125,-115.72265625
122.28125,-44.43359375,-41.50390625,26.3671875,-132.32421875
122.28515625,-72.265625,-32.71484375,21.484375,-172.8515625
122.2890625,-85.9375,-29.78515625,24.4140625,-105.46875
122.29296875,-57.6171875,-37.109375,24.90234375,-97.16796875
122.296875,-46.38671875,-35.15625,20.01953125,-87.40234375
122.30078125,-60.546875,-37.59765625,18.5546875,-87.40234375
122.3046875,-55.17578125,-48.33984375,11.23046875,-111.328125
122.30859375,-52.24609375,-48.33984375,15.13671875,-61.5234375
122.3125,-84.9609375,-44.921875,20.01953125,-126.953125
122.31640625,-57.12890625,-50.29296875,18.06640625,-127.44140625
122.3203125,-37.109375,-52.734375,14.6484375,-87.890625
122.32421875,-88.37890625,-44.921875,16.6015625,-88.8671875
122.328125,-92.28515625,-46.875,18.06640625,-92.28515625
122.33203125,-73.73046875,-45.41015625,14.6484375,-131.8359375
122.3359375,-47.36328125,-41.9921875,18.06640625,-114.74609375
122.33984375,-51.7578125,-38.57421875,21.97265625,-110.83984375
122.34375,-67.87109375,-36.1328125,24.90234375,-63.4765625
122.34765625,-48.33984375,-42.96875,16.11328125,-81.54296875
122.3515625,-102.05078125,-51.26953125,13.18359375,-128.41796875
122.35546875,-98.14453125,-58.10546875,14.6484375,-153.80859375
122.359375,-91.796875,-58.10546875,3.90625,-203.125
122.36328125,-123.53515625,-62.98828125,4.39453125,-120.60546875
122.3671875,-103.515625,-65.4296875,2.44140625,-42.48046875
122.37109375,-82.51953125,-61.5234375,-6.8359375,-162.109375
122.375,-139.16015625,-53.7109375,-3.41796875,-256.8359375
122.37890625,-200.68359375,-47.36328125,1.46484375,-158.203125
122.3828125,-189.453125,-44.921875,1.953125,-154.78515625
122.38671875,-160.64453125,-48.33984375,-5.37109375,-216.30859375
122.390625,-135.7421875,-45.41015625,-12.6953125,-205.56640625
122.39453125,-193.84765625,-43.9453125,-16.11328125,-231.93359375
122.3984375,-272.4609375,-50.29296875,-18.06640625,-263.18359375
122.40234375,-245.60546875,-62.01171875,-16.11328125,-247.55859375
122.40625,-247.0703125,-69.82421875,-19.04296875,-274.4140625
122.41015625,-252.44140625,-64.94140625,-20.5078125,-301.26953125
122.4140625,-246.09375,-62.01171875,-14.6484375,-249.51171875
122.41796875,-215.33203125,-67.87109375,-5.859375,-204.58984375
122.421875,-197.265625,-68.359375,3.41796875,-168.45703125
122.42578125,-169.921875,-62.98828125,3.41796875,-190.4296875
122.4296875,-176.7578125,-56.640625,5.859375,-219.23828125
122.43359375,-197.75390625,-53.22265625,3.90625,-219.23828125
122.4375,-162.109375,-45.41015625,1.953125,-153.3203125
122.44140625,-139.16015625,-36.1328125,5.859375,-140.13671875
122.4453125,-134.765625,-37.59765625,2.44140625,-53.22265625
122.44921875,-111.81640625,-33.69140625,4.8828125,-39.0625
122.453125,-88.37890625,-31.25,6.34765625,-156.73828125
122.45703125,-85.9375,-35.64453125,5.859375,-133.7890625
122.4609375,-63.96484375,-38.0859375,5.859375,-95.703125
122.46484375,-37.109375,-38.57421875,6.34765625,-67.87109375
122.46875,-56.15234375,-43.45703125,6.34765625,-73.73046875
122.47265625,-33.69140625,-46.875,2.9296875,-72.265625
122.4765625,-22.4609375,-42.96875,2.44140625,-47.8515625
122.48046875,-25.390625,-43.45703125,-4.39453125,-4.8828125
122.484375,-37.109375,-44.921875,-2.44140625,-20.5078125
122.48828125,-55.6640625,-45.41015625,6.34765625,-20.01953125
122.4921875,-32.71484375,-47.36328125,4.8828125,-3.41796875
122.49609375,-16.11328125,-47.36328125,0.48828125,-35.64453125
122.5,-17.578125,-44.921875,0.0,-21.484375
122.50390625,10.25390625,-41.50390625,3.41796875,-29.296875
122.5078125,2.44140625,-43.45703125,2.9296875,-4.8828125
122.51171875,-6.8359375,-44.921875,0.48828125,18.06640625
122.515625,-4.39453125,-46.38671875,2.9296875,-22.94921875
122.51953125,-9.765625,-45.8984375,3.41796875,-14.16015625
122.5234375,60.546875,-41.015625,-2.44140625,30.76171875
122.52734375,20.01953125,-34.66796875,-7.32421875,-22.4609375
122.53125,-23.92578125,-36.62109375,1.46484375,-38.0859375
122.53515625,-5.859375,-39.55078125,4.39453125,-9.765625
122.5390625,-25.87890625,-32.71484375,1.46484375,40.52734375
122.54296875,-29.296875,-36.62109375,-3.90625,26.3671875
122.546875,-11.23046875,-38.57421875,-6.8359375,-65.4296875
122.55078125,14.6484375,-33.69140625,-3.41796875,-28.80859375
122.5546875,-17.08984375,-40.52734375,-6.8359375,-14.16015625
122.55859375,9.765625,-44.43359375,-10.7421875,-4.8828125
122.5625,32.71484375,-37.109375,-9.27734375,9.765625
122.56640625,-29.296875,-34.1796875,-9.27734375,-1.953125
122.5703125,-25.87890625,-41.9921875,-8.30078125,-0.48828125
122.57421875,44.921875,-39.55078125,-4.39453125,-8.7890625
122.578125,6.8359375,-34.1796875,-9.27734375,-17.08984375
122.58203125,-45.8984375,-43.45703125,-11.23046875,24.4140625
122.5859375,-1.46484375,-50.29296875,-11.71875,18.5546875
122.58984375,-37.109375,-48.828125,-16.11328125,-29.296875
122.59375,-66.89453125,-41.9921875,-10.7421875,-18.06640625
122.59765625,-7.8125,-38.0859375,-3.41796875,53.7109375
122.6015625,20.01953125,-40.0390625,-8.7890625,-6.34765625
122.60546875,-4.39453125,-45.41015625,-14.6484375,-62.98828125
122.609375,10.25390625,-51.7578125,-16.11328125,25.87890625
122.61328125,-15.13671875,-49.8046875,-14.16015625,9.27734375
122.6171875,-60.05859375,-50.29296875,-17.08984375,-49.31640625
122.62109375,-44.43359375,-55.17578125,-22.4609375,-53.22265625
122.625,-31.25,-47.36328125,-17.08984375,-14.16015625
122.62890625,-10.7421875,-40.52734375,-18.06640625,14.16015625
122.6328125,-13.18359375,-41.015625,-21.97265625,43.9453125
122.63671875,-1.46484375,-39.55078125,-20.01953125,13.671875
122.640625,-3.41796875,-38.0859375,-23.4375,-89.35546875
122.64453125,-29.296875,-36.62109375,-22.94921875,-51.7578125
122.6484375,-39.0625,-41.50390625,-19.04296875,-9.765625
122.65234375,-7.8125,-48.33984375,-16.11328125,-34.1796875
122.65625,-25.390625,-49.31640625,-9.27734375,-5.859375
122.66015625,-23.4375,-49.31640625,-10.7421875,18.5546875
122.6640625,10.25390625,-50.29296875,-19.53125,-21.484375
122.66796875,-1.953125,-48.828125,-24.90234375,-1.953125
122.671875,-25.390625,-43.45703125,-24.90234375,1.953125
122.67578125,-42.96875,-43.45703125,-25.87890625,3.90625
122.6796875,-32.71484375,-45.41015625,-23.4375,-22.4609375
122.68359375,-19.04296875,-47.8515625,-20.01953125,-23.4375
122.6875,-42.48046875,-44.921875,-22.94921875,-7.32421875
122.69140625,-38.0859375,-45.8984375,-25.87890625,-27.83203125
122.6953125,-6.34765625,-46.875,-26.3671875,-7.8125
122.69921875,-7.32421875,-42.96875,-25.390625,5.37109375
122.703125,-25.390625,-41.50390625,-19.53125,-33.203125
122.70703125,-35.15625,-40.52734375,-22.4609375,-52.24609375
122.7109375,-44.43359375,-45.8984375,-28.80859375,-39.55078125
122.71484375,-24.4140625,-48.828125,-22.4609375,-32.71484375
122.71875,-2.9296875,-41.015625,-19.04296875,-16.11328125
122.72265625,-6.34765625,-33.203125,-23.92578125,-21.484375
122.7265625,-37.59765625,-36.62109375,-27.34375,-6.8359375
122.73046875,-42.48046875,-40.52734375,-25.87890625,-1.46484375
122.734375,11.71875,-37.109375,-19.04296875,-17.578125
122.73828125,-43.45703125,-30.2734375,-12.20703125,22.4609375
122.7421875,-43.9453125,-31.73828125,-13.671875,-18.5546875
122.74609375,12.20703125,-39.0625,-17.08984375,-86.9140625
122.75,-46.38671875,-36.62109375,-22.4609375,-65.91796875
122.75390625,-20.99609375,-35.64453125,-25.390625,-37.59765625
122.7578125,-13.18359375,-39.0625,-27.34375,-27.83203125
122.76171875,-38.0859375,-43.9453125,-26.3671875,-36.62109375
122.765625,-29.78515625,-47.36328125,-20.99609375,-46.875
122.76953125,-23.4375,-41.50390625,-20.99609375,-45.8984375
122.7734375,-15.625,-39.0625,-24.4140625,-23.4375
122.77734375,-27.34375,-41.015625,-22.94921875,-22.94921875
122.78125,-38.0859375,-42.96875,-25.390625,-20.01953125
122.78515625,-26.3671875,-46.875,-28.3203125,-33.69140625
122.7890625,-20.99609375,-44.921875,-26.3671875,-46.38671875
122.79296875,-11.23046875,-43.45703125,-22.94921875,11.23046875
122.796875,-70.3125,-50.29296875,-25.390625,-50.78125
122.80078125,-56.640625,-56.15234375,-25.390625,-95.21484375
122.8046875,0.48828125,-56.640625,-19.53125,-54.19921875
122.80859375,-23.92578125,-51.26953125,-15.625,-67.87109375
122.8125,-50.29296875,-45.41015625,-17.08984375,-83.0078125
122.81640625,-18.06640625,-49.8046875,-25.390625,-84.47265625
122.8203125,-21.97265625,-55.17578125,-23.92578125,-49.31640625
122.82421875,-62.5,-50.29296875,-23.4375,-81.0546875
122.828125,-60.546875,-45.41015625,-30.76171875,-114.74609375
122.83203125,-51.26953125,-47.8515625,-27.34375,-88.37890625
122.8359375,-49.8046875,-48.33984375,-24.90234375,-89.35546875
122.83984375,-44.921875,-51.26953125,-26.85546875,-80.078125
122.84375,-14.6484375,-57.12890625,-23.4375,-55.6640625
122.84765625,-12.20703125,-48.33984375,-24.90234375,-44.43359375
122.8515625,-44.43359375,-45.8984375,-23.4375,-57.6171875
122.85546875,-39.55078125,-47.8515625,-17.578125,-47.8515625
122.859375,7.32421875,-44.921875,-20.99609375,-26.85546875
122.86328125,-35.64453125,-45.41015625,-27.83203125,-54.19921875
122.8671875,-83.49609375,-46.875,-27.34375,-77.1484375
122.87109375,-61.03515625,-44.921875,-25.87890625,-62.5
122.875,-29.296875,-41.015625,-23.4375,-76.171875
122.87890625,-30.2734375,-44.921875,-22.4609375,-65.4296875
122.8828125,-39.0625,-44.43359375,-29.296875,-79.1015625
122.88671875,-20.99609375,-35.64453125,-29.78515625,-85.9375
122.890625,8.30078125,-34.66796875,-22.94921875,-20.99609375
122.89453125,-14.6484375,-37.109375,-19.04296875,-8.30078125
122.8984375,-30.2734375,-34.66796875,-19.53125,-77.1484375
122.90234375,-31.25,-35.15625,-20.99609375,-64.453125
122.90625,-38.0859375,-38.57421875,-22.94921875,-26.3671875
122.91015625,-30.2734375,-36.62109375,-22.94921875,-60.546875
122.9140625,0.48828125,-31.73828125,-13.671875,-49.31640625
122.91796875,3.90625,-30.76171875,-14.6484375,-59.5703125
122.921875,-30.76171875,-33.203125,-17.08984375,-64.453125
122.92578125,-25.390625,-41.9921875,-14.6484375,-60.05859375
122.9296875,-3.41796875,-46.875,-18.5546875,-49.31640625
122.93359375,-21.97265625,-41.50390625,-19.04296875,-57.12890625
122.9375,-44.43359375,-41.015625,-17.578125,-75.1953125
122.94140625,-60.05859375,-43.9453125,-16.11328125,-66.89453125
122.9453125,-52.24609375,-48.828125,-22.4609375,-33.69140625
122.94921875,-0.9765625,-43.9453125,-21.484375,-60.05859375
122.953125,-18.06640625,-37.109375,-22.94921875,-83.984375
122.95703125,-50.78125,-36.62109375,-25.390625,-28.80859375
122.9609375,-61.03515625,-35.64453125,-22.4609375,-57.6171875
122.96484375,-46.875,-30.2734375,-19.04296875,-80.56640625
122.96875,-28.3203125,-33.203125,-19.53125,-25.87890625
122.97265625,-35.64453125,-32.71484375,-27.83203125,-33.69140625
122.9765625,-15.625,-28.3203125,-29.296875,-77.63671875
122.98046875,-0.9765625,-30.76171875,-24.90234375,-73.2421875
122.984375,-23.92578125,-40.0390625,-25.390625,-48.33984375
122.98828125,-51.7578125,-42.48046875,-25.87890625,-65.91796875
122.9921875,-33.203125,-40.0390625,-30.76171875,-95.21484375
122.99609375,-47.36328125,-41.015625,-36.62109375,-62.98828125
123.0,-84.9609375,-45.8984375,-35.15625,-77.63671875
123.00390625,-54.19921875,-48.828125,-27.83203125,-79.58984375
123.0078125,-63.4765625,-45.8984375,-23.92578125,-82.03125
123.01171875,-61.03515625,-47.8515625,-30.2734375,-86.42578125
123.015625,-14.6484375,-56.15234375,-35.15625,-39.55078125
123.01953125,0.9765625,-51.26953125,-30.2734375,-2.9296875
123.0234375,-5.37109375,-45.41015625,-27.83203125,-35.64453125
123.02734375,-53.7109375,-51.7578125,-33.203125,-76.171875
123.03125,-60.546875,-53.22265625,-34.1796875,-16.6015625
123.03515625,-53.22265625,-53.22265625,-34.66796875,-53.22265625
123.0390625,-32.71484375,-47.36328125,-33.203125,-95.21484375
123.04296875,-24.90234375,-41.9921875,-29.296875,-71.2890625
123.046875,-15.625,-45.8984375,-29.78515625,-77.63671875
123.05078125,-32.2265625,-39.0625,-27.34375,-59.08203125
123.0546875,-48.828125,-30.76171875,-20.99609375,-68.84765625
123.05859375,-38.0859375,-30.76171875,-17.578125,-58.10546875
123.0625,-31.25,-24.90234375,-20.01953125,-62.01171875
123.06640625,-24.4140625,-27.83203125,-20.99609375,-69.82421875
123.0703125,-20.99609375,-40.0390625,-23.4375,-39.0625
123.07421875,-52.734375,-41.9921875,-27.34375,-49.8046875
123.078125,-61.03515625,-38.0859375,-27.34375,-54.6875
123.08203125,-58.10546875,-35.15625,-17.578125,-46.875
123.0859375,-22.94921875,-30.76171875,-11.23046875,-11.23046875
123.08984375,-42.48046875,-32.2265625,-18.5546875,-56.640625
123.09375,-20.5078125,-38.0859375,-24.90234375,-14.16015625
123.09765625,-28.3203125,-36.62109375,-26.3671875,0.0
123.1015625,-47.8515625,-36.1328125,-28.80859375,-128.90625
123.10546875,-37.109375,-38.0859375,-25.87890625,-79.1015625
123.109375,-33.69140625,-36.62109375,-21.97265625,-47.8515625
123.11328125,-40.0390625,-34.1796875,-11.71875,-8.7890625
123.1171875,-20.01953125,-35.15625,-2.44140625,60.05859375
123.12109375,34.1796875,-30.2734375,-11.23046875,-78.61328125
123.125,-77.63671875,-36.1328125,-15.625,-77.63671875
123.12890625,-68.84765625,-42.96875,-14.16015625,-18.5546875
123.1328125,-27.83203125,-38.57421875,-11.23046875,-69.3359375
123.13671875,-52.734375,-35.15625,-4.8828125,-60.546875
123.140625,4.39453125,-32.71484375,-9.27734375,-117.67578125
123.14453125,-21.97265625,-44.43359375,-15.625,-91.30859375
123.1484375,-73.73046875,-52.24609375,-16.6015625,-33.203125
123.15234375,-51.7578125,-47.8515625,-20.99609375,-44.921875
123.15625,-25.390625,-51.7578125,-28.80859375,-46.875
123.16015625,-24.90234375,-59.08203125,-26.85546875,-28.3203125
123.1640625,-42.48046875,-51.7578125,-20.5078125,-4.8828125
123.16796875,-22.4609375,-41.50390625,-19.53125,-29.78515625
123.171875,7.32421875,-49.31640625,-23.92578125,-77.63671875
123.17578125,-60.05859375,-49.31640625,-20.99609375,-39.0625
123.1796875,-61.03515625,-48.33984375,-18.5546875,-2.9296875
123.18359375,22.4609375,-49.31640625,-19.04296875,-15.625
123.1875,-30.2734375,-51.7578125,-17.578125,-17.08984375
123.19140625,-71.2890625,-50.78125,-20.5078125,-15.625
123.1953125,-9.765625,-48.33984375,-18.06640625,-17.578125
123.19921875,-27.34375,-46.875,-13.671875,-46.38671875
123.203125,-27.34375,-37.59765625,-11.23046875,-39.55078125
123.20703125,1.953125,-37.59765625,-11.71875,-26.3671875
123.2109375,-25.87890625,-41.50390625,-21.97265625,-42.96875
123.21484375,-22.4609375,-40.0390625,-21.97265625,-21.484375
123.21875,-51.7578125,-42.96875,-16.6015625,9.27734375
123.22265625,-102.5390625,-44.43359375,-23.92578125,-91.30859375
123.2265625,-51.7578125,-39.0625,-24.4140625,-94.23828125
123.23046875,-8.30078125,-35.64453125,-20.5078125,-13.18359375
123.234375,16.11328125,-35.15625,-23.92578125,-41.9921875
123.23828125,-10.7421875,-33.203125,-20.01953125,-53.22265625
123.2421875,-13.18359375,-34.66796875,-20.5078125,-21.97265625
123.24609375,-3.41796875,-39.0625,-20.01953125,8.30078125
123.25,-3.41796875,-40.0390625,-12.6953125,1.46484375
123.25390625,-34.66796875,-38.0859375,-17.578125,-31.25
123.2578125,-54.19921875,-40.0390625,-21.97265625,-18.5546875
123.26171875,14.16015625,-41.50390625,-16.6015625,9.27734375
123.265625,-55.17578125,-40.52734375,-18.06640625,-28.80859375
123.26953125,-59.08203125,-40.0390625,-27.83203125,-48.33984375
123.2734375,-19.53125,-36.62109375,-33.203125,-40.0390625
123.27734375,5.859375,-33.69140625,-35.15625,-32.71484375
123.28125,5.37109375,-35.64453125,-25.87890625,-1.46484375
123.28515625,-58.10546875,-39.0625,-17.08984375,-86.9140625
123.2890625,-47.8515625,-37.109375,-24.90234375,-65.4296875
123.29296875,-55.17578125,-38.0859375,-23.92578125,-13.671875
123.296875,-73.73046875,-45.8984375,-23.92578125,-41.50390625
123.30078125,-9.27734375,-49.31640625,-27.83203125,-62.5
123.3046875,-20.99609375,-43.45703125,-26.85546875,-54.6875
123.30859375,-85.9375,-40.52734375,-25.87890625,-5.37109375
123.3125,-66.40625,-40.52734375,-18.5546875,7.32421875
123.31640625,-25.390625,-40.0390625,-20.99609375,-18.5546875
123.3203125,-21.97265625,-39.0625,-23.92578125,-61.03515625
123.32421875,-56.640625,-36.62109375,-18.5546875,-72.75390625
123.328125,-13.18359375,-35.64453125,-16.11328125,-72.75390625
123.33203125,1.953125,-37.109375,-15.13671875,0.48828125
123.3359375,-33.203125,-37.59765625,-20.01953125,-12.6953125
123.33984375,-42.96875,-36.1328125,-24.4140625,-80.56640625
123.34375,-36.62109375,-30.2734375,-19.04296875,-33.69140625
123.34765625,-42.48046875,-31.25,-23.4375,-46.875
123.3515625,-45.8984375,-32.2265625,-24.90234375,-52.734375
123.35546875,-38.0859375,-29.78515625,-20.01953125,-56.15234375
123.359375,-26.85546875,-29.296875,-14.16015625,-5.859375
123.36328125,-30.76171875,-28.80859375,-16.11328125,19.04296875
123.3671875,-64.453125,-30.76171875,-20.99609375,-65.4296875
123.37109375,-76.171875,-28.80859375,-19.04296875,-62.5
123.375,23.92578125,-27.83203125,-22.94921875,-46.38671875
123.37890625,-3.90625,-34.1796875,-25.390625,-62.01171875
123.3828125,-96.19140625,-41.015625,-30.76171875,-33.203125
123.38671875,-70.80078125,-34.66796875,-35.64453125,17.578125
123.390625,-12.6953125,-33.203125,-33.69140625,-42.48046875
123.39453125,-22.4609375,-32.2265625,-25.87890625,-57.12890625
123.3984375,-74.21875,-29.296875,-26.85546875,-26.85546875
123.40234375,-62.5,-27.34375,-29.78515625,-41.015625
123.40625,-44.43359375,-24.90234375,-20.5078125,-32.71484375
123.41015625,-48.33984375,-29.296875,-14.16015625,-4.8828125
123.4140625,-53.7109375,-29.78515625,-15.625,-8.7890625
123.41796875,-56.15234375,-31.25,-24.90234375,-24.90234375
123.421875,-41.50390625,-36.62109375,-29.296875,-41.50390625
123.42578125,-23.4375,-31.73828125,-24.90234375,-61.5234375
123.4296875,-76.66015625,-24.4140625,-22.4609375,-72.75390625
123.43359375,-90.33203125,-26.85546875,-28.80859375,-85.44921875
123.4375,-62.01171875,-30.76171875,-29.78515625,-22.4609375
123.44140625,-66.89453125,-36.1328125,-30.76171875,-43.9453125
123.4453125,-85.44921875,-35.15625,-29.296875,-91.30859375
123.44921875,-92.7734375,-33.203125,-29.78515625,-83.0078125
123.453125,-126.953125,-32.71484375,-31.25,-115.234375
123.45703125,-132.8125,-28.80859375,-30.76171875,-109.375
123.4609375,-114.74609375,-27.34375,-34.66796875,-135.7421875
123.46484375,-141.6015625,-29.78515625,-33.69140625,-141.11328125
123.46875,-149.90234375,-33.203125,-37.109375,-154.78515625
123.47265625,-178.22265625,-30.76171875,-43.45703125,-200.1953125
123.4765625,-209.47265625,-29.296875,-40.0390625,-209.9609375
123.48046875,-213.8671875,-29.296875,-31.25,-212.40234375
123.484375,-232.91015625,-27.83203125,-20.99609375,-183.10546875
123.48828125,-182.6171875,-32.2265625,-21.97265625,-205.078125
123.4921875,-159.66796875,-36.62109375,-33.203125,-230.46875
123.49609375,-222.65625,-41.015625,-32.2265625,-185.546875
123.5,-183.59375,-40.0390625,-27.83203125,-133.7890625
123.50390625,-148.4375,-40.0390625,-32.2265625,-152.34375
123.5078125,-161.62109375,-46.875,-31.25,-190.91796875
123.51171875,-161.1328125,-40.52734375,-22.94921875,-153.3203125
123.515625,-152.83203125,-29.78515625,-27.34375,-159.1796875
123.51953125,-135.7421875,-31.25,-31.73828125,-146.97265625
123.5234375,-124.0234375,-31.25,-30.2734375,-139.16015625
123.52734375,-126.953125,-33.69140625,-34.66796875,-138.18359375
123.53125,-74.70703125,-29.78515625,-32.2265625,-100.5859375
123.53515625,-65.91796875,-22.4609375,-30.2734375,-81.0546875
123.5390625,-78.125,-25.87890625,-39.0625,-81.0546875
123.54296875,-37.109375,-29.296875,-41.015625,-52.24609375
123.546875,-57.12890625,-31.73828125,-33.69140625,-22.94921875
123.55078125,-62.98828125,-34.66796875,-27.83203125,-47.8515625
123.5546875,-2.9296875,-35.64453125,-26.85546875,-50.78125
123.55859375,4.39453125,-32.71484375,-30.2734375,-29.78515625
123.5625,5.37109375,-27.83203125,-29.296875,-16.6015625
123.56640625,17.08984375,-20.01953125,-20.01953125,43.45703125
123.5703125,32.2265625,-17.578125,-18.06640625,-8.30078125
123.57421875,-15.625,-26.85546875,-30.76171875,-78.125
123.578125,-7.32421875,-31.25,-34.1796875,-18.5546875
123.58203125,10.7421875,-30.76171875,-30.76171875,11.71875
123.5859375,-27.83203125,-30.76171875,-28.80859375,-24.4140625
123.58984375,0.9765625,-28.80859375,-29.296875,-16.11328125
123.59375,22.4609375,-26.85546875,-26.3671875,11.23046875
123.59765625,31.25,-25.390625,-20.5078125,21.97265625
123.6015625,0.48828125,-24.4140625,-18.06640625,10.25390625
123.60546875,1.46484375,-25.87890625,-20.99609375,51.7578125
123.609375,20.01953125,-25.87890625,-28.3203125,63.96484375
123.61328125,20.99609375,-25.87890625,-31.73828125,-34.1796875
123.6171875,1.953125,-26.3671875,-28.3203125,-20.01953125
123.62109375,-13.671875,-24.4140625,-28.80859375,-1.953125
123.625,19.04296875,-27.83203125,-29.296875,20.99609375
123.62890625,32.71484375,-34.1796875,-32.2265625,10.7421875
123.6328125,6.8359375,-34.1796875,-32.2265625,36.62109375
123.63671875,-19.53125,-34.1796875,-29.78515625,36.62109375
123.640625,9.27734375,-36.1328125,-36.1328125,-2.44140625
123.64453125,48.33984375,-36.1328125,-33.203125,-27.83203125
123.6484375,16.11328125,-36.1328125,-26.85546875,-36.1328125
123.65234375,-3.41796875,-36.62109375,-31.25,14.16015625
123.65625,-2.9296875,-37.109375,-31.25,4.39453125
123.66015625,-29.78515625,-40.52734375,-27.83203125,-1.46484375
123.6640625,12.20703125,-42.96875,-27.83203125,3.41796875
123.66796875,18.06640625,-39.55078125,-26.85546875,37.59765625
123.671875,-11.71875,-40.0390625,-23.92578125,58.10546875
123.67578125,8.30078125,-38.0859375,-24.90234375,-2.9296875
123.6796875,4.39453125,-38.0859375,-33.203125,-31.73828125
123.68359375,0.9765625,-40.52734375,-31.73828125,-26.3671875
123.6875,15.13671875,-38.0859375,-28.3203125,-10.7421875
123.69140625,2.44140625,-42.96875,-30.76171875,5.859375
123.6953125,-5.859375,-46.38671875,-31.25,2.9296875
123.69921875,12.20703125,-41.50390625,-30.2734375,3.90625
123.703125,21.97265625,-38.57421875,-37.109375,-12.6953125
123.70703125,-4.39453125,-41.9921875,-36.62109375,-21.484375
123.7109375,-25.87890625,-47.8515625,-30.76171875,3.41796875
123.71484375,-6.34765625,-45.41015625,-33.203125,-1.46484375
123.71875,-26.3671875,-43.9453125,-32.71484375,-30.76171875
123.72265625,9.27734375,-47.36328125,-32.71484375,-27.34375
123.7265625,11.71875,-46.38671875,-22.4609375,27.34375
123.73046875,-47.36328125,-40.0390625,-23.4375,26.85546875
123.734375,-37.109375,-39.55078125,-29.78515625,-21.97265625
123.73828125,12.20703125,-42.96875,-30.2734375,-50.29296875
123.7421875,-39.55078125,-42.96875,-36.62109375,-17.08984375
123.74609375,-36.62109375,-44.921875,-38.0859375,-24.90234375
123.75,40.0390625,-45.8984375,-34.1796875,-55.17578125
123.75390625,-54.19921875,-41.9921875,-34.1796875,-41.50390625
123.7578125,-75.1953125,-41.9921875,-36.62109375,-61.5234375
123.76171875,-40.52734375,-46.875,-41.50390625,-48.33984375
123.765625,-26.3671875,-43.45703125,-41.50390625,-41.50390625
123.76953125,11.71875,-38.0859375,-39.0625,-51.26953125
123.7734375,-7.32421875,-40.52734375,-37.109375,-50.29296875
123.77734375,-34.1796875,-42.96875,-35.15625,-18.06640625
123.78125,-31.73828125,-41.50390625,-34.1796875,3.90625
123.78515625,-40.52734375,-38.0859375,-36.1328125,-30.2734375
123.7890625,-63.96484375,-37.109375,-36.62109375,-52.24609375
123.79296875,-57.12890625,-38.0859375,-37.109375,-36.62109375
123.796875,2.44140625,-40.0390625,-40.52734375,-38.57421875
123.80078125,4.39453125,-42.48046875,-34.66796875,-25.87890625
123.8046875,-55.6640625,-38.57421875,-34.1796875,-51.26953125
123.80859375,-33.203125,-40.52734375,-39.55078125,-75.1953125
123.8125,-28.80859375,-36.62109375,-35.15625,-28.3203125
123.81640625,-11.71875,-30.2734375,-30.2734375,0.9765625
123.8203125,-14.6484375,-40.52734375,-31.73828125,-9.765625
123.82421875,-60.546875,-40.52734375,-33.69140625,-13.18359375
123.828125,-36.1328125,-34.1796875,-33.203125,-25.390625
123.83203125,-20.99609375,-31.73828125,-37.59765625,-27.34375
123.8359375,-60.05859375,-31.73828125,-39.0625,-42.48046875
123.83984375,-24.4140625,-26.3671875,-35.15625,-40.0390625
123.84375,9.27734375,-19.53125,-29.78515625,-3.41796875
123.84765625,-28.80859375,-23.92578125,-28.80859375,-18.5546875
123.8515625,-80.078125,-18.5546875,-42.48046875,-36.62109375
123.85546875,-36.62109375,-14.6484375,-43.45703125,-5.37109375
123.859375,-19.53125,-23.4375,-36.1328125,-33.69140625
123.86328125,-21.97265625,-22.94921875,-39.0625,-57.12890625
123.8671875,-3.41796875,-28.80859375,-44.43359375,-14.6484375
123.87109375,-24.90234375,-36.62109375,-47.36328125,-26.85546875
123.875,-33.203125,-38.57421875,-48.828125,-54.6875
123.87890625,-47.8515625,-40.52734375,-48.33984375,-46.875
123.8828125,-62.98828125,-38.57421875,-43.45703125,6.34765625
123.88671875,-26.3671875,-38.0859375,-40.52734375,2.44140625
123.890625,-9.765625,-35.64453125,-42.48046875,-31.73828125
123.89453125,-15.13671875,-37.59765625,-43.9453125,-27.34375
123.8984375,-45.41015625,-34.66796875,-42.48046875,-36.1328125
123.90234375,-56.15234375,-24.4140625,-41.015625,-17.578125
123.90625,-11.23046875,-28.3203125,-41.9921875,0.48828125
123.91015625,9.27734375,-36.1328125,-41.015625,1.46484375
123.9140625,12.6953125,-37.59765625,-40.52734375,-23.4375
123.91796875,-37.59765625,-32.2265625,-46.875,-57.6171875
123.921875,-37.109375,-22.4609375,-46.38671875,-53.7109375
123.92578125,-27.83203125,-26.3671875,-42.48046875,-15.625
123.9296875,-29.296875,-34.66796875,-41.015625,-12.20703125
123.93359375,-30.2734375,-33.203125,-38.57421875,-45.41015625
123.9375,-16.11328125,-30.76171875,-41.015625,-33.203125
123.94140625,0.9765625,-32.71484375,-40.0390625,-10.25390625
123.9453125,-49.31640625,-39.0625,-39.0625,-16.6015625
123.94921875,-1.953125,-41.015625,-38.0859375,13.18359375
123.953125,6.8359375,-34.66796875,-33.203125,12.20703125
123.95703125,-65.91796875,-33.69140625,-35.15625,-46.875
123.9609375,-41.50390625,-37.109375,-34.66796875,-43.45703125
123.96484375,-37.109375,-37.109375,-35.15625,-42.96875
123.96875,-21.484375,-41.015625,-36.1328125,-26.85546875
123.97265625,-41.50390625,-38.57421875,-34.1796875,-21.97265625
123.9765625,-58.10546875,-37.109375,-36.62109375,-41.50390625
123.98046875,-13.671875,-36.1328125,-35.15625,-17.578125
123.984375,-32.2265625,-32.71484375,-31.25,-8.7890625
123.98828125,-16.11328125,-36.1328125,-30.76171875,7.32421875
123.9921875,6.34765625,-38.57421875,-36.1328125,-20.01953125
123.99609375,-28.80859375,-32.2265625,-39.0625,-62.5
124.0,-34.66796875,-26.85546875,-36.62109375,-42.48046875
124.00390625,-40.52734375,-28.80859375,-41.015625,-35.64453125
124.0078125,-50.78125,-27.34375,-36.62109375,-32.2265625
124.01171875,-16.6015625,-22.4609375,-33.203125,-18.5546875
124.015625,-9.27734375,-27.34375,-39.55078125,-22.94921875
124.01953125,-45.8984375,-32.2265625,-40.52734375,-14.16015625
124.0234375,-31.73828125,-27.83203125,-35.64453125,-17.08984375
124.02734375,-22.4609375,-32.71484375,-35.64453125,-48.828125
124.03125,-34.1796875,-40.0390625,-34.1796875,-61.03515625
124.03515625,-29.78515625,-41.50390625,-35.15625,-8.7890625
124.0390625,-35.64453125,-37.109375,-34.1796875,10.7421875
124.04296875,-36.62109375,-36.62109375,-32.2265625,-55.17578125
124.046875,-53.22265625,-38.57421875,-41.9921875,-47.8515625
124.05078125,-36.62109375,-34.1796875,-43.45703125,-17.578125
124.0546875,-13.671875,-37.59765625,-34.1796875,-44.921875
124.05859375,-12.20703125,-40.52734375,-32.71484375,-55.17578125
124.0625,-38.0859375,-33.69140625,-34.66796875,0.9765625
124.06640625,-42.96875,-30.76171875,-31.25,4.39453125
124.0703125,-32.71484375,-31.25,-32.71484375,-12.6953125
124.07421875,-17.578125,-27.34375,-36.1328125,-25.87890625
124.078125,-15.13671875,-25.87890625,-34.66796875,-38.0859375
124.08203125,-7.32421875,-28.3203125,-31.25,7.8125
124.0859375,-15.625,-25.87890625,-33.69140625,-20.99609375
124.08984375,-20.5078125,-28.80859375,-35.64453125,-71.77734375
124.09375,-50.29296875,-22.4609375,-32.2265625,-15.625
124.09765625,-53.22265625,-20.99609375,-28.3203125,26.85546875
124.1015625,-28.3203125,-27.83203125,-31.25,-49.8046875
124.10546875,-35.64453125,-30.76171875,-31.73828125,-87.40234375
124.109375,-41.9921875,-31.73828125,-27.83203125,-72.265625
124.11328125,-61.03515625,-25.87890625,-31.73828125,-65.4296875
124.1171875,-54.19921875,-26.3671875,-35.64453125,-53.7109375
124.12109375,-8.30078125,-25.87890625,-29.296875,-35.64453125
124.125,-29.78515625,-23.92578125,-31.73828125,-53.7109375
124.12890625,-34.1796875,-21.484375,-32.71484375,-19.04296875
124.1328125,-34.66796875,-16.11328125,-26.85546875,-10.7421875
124.13671875,-38.0859375,-20.99609375,-22.94921875,-7.8125
124.140625,-42.96875,-29.296875,-22.4609375,-22.94921875
124.14453125,-18.5546875,-26.85546875,-27.34375,-54.6875
124.1484375,-38.57421875,-27.83203125,-29.296875,-9.27734375
124.15234375,-76.171875,-32.2265625,-33.203125,-48.828125
124.15625,-45.8984375,-32.2265625,-34.66796875,-64.453125
124.16015625,-47.36328125,-31.73828125,-33.203125,-56.15234375
124.1640625,-38.57421875,-30.2734375,-32.2265625,-41.9921875
124.16796875,-25.87890625,-23.92578125,-23.92578125,-28.80859375
124.171875,-24.4140625,-22.94921875,-20.99609375,-47.8515625
124.17578125,-62.98828125,-31.73828125,-28.80859375,-37.109375
124.1796875,-73.2421875,-39.0625,-31.73828125,-14.16015625
124.18359375,-38.57421875,-38.0859375,-30.2734375,-15.13671875
124.1875,-47.8515625,-35.15625,-29.296875,-11.23046875
124.19140625,-43.45703125,-28.80859375,-26.85546875,-18.06640625
124.1953125,-20.01953125,-25.87890625,-27.34375,-48.33984375
124.19921875,-23.4375,-30.2734375,-25.390625,-12.20703125
124.203125,-58.59375,-35.64453125,-26.85546875,6.34765625
124.20703125,-3.41796875,-33.69140625,-30.2734375,-51.7578125
124.2109375,-0.48828125,-26.85546875,-27.34375,-31.25
124.21484375,-59.5703125,-27.34375,-25.87890625,10.25390625
124.21875,-56.640625,-23.92578125,-25.390625,-20.99609375
124.22265625,-61.03515625,-21.97265625,-29.78515625,-52.24609375
124.2265625,-20.99609375,-28.80859375,-29.296875,-19.04296875
124.23046875,-22.94921875,-30.76171875,-26.3671875,-26.85546875
124.234375,-10.25390625,-20.99609375,-23.92578125,-30.76171875
124.23828125,-16.11328125,-20.99609375,-26.3671875,-20.01953125
124.2421875,-46.875,-23.92578125,-31.25,-40.0390625
124.24609375,-20.01953125,-21.97265625,-21.97265625,-17.08984375
124.25,1.46484375,-20.99609375,-15.625,-4.8828125
124.25390625,-21.484375,-19.04296875,-22.94921875,-24.4140625
124.2578125,-55.17578125,-20.99609375,-28.3203125,-40.0390625
124.26171875,0.9765625,-21.484375,-27.34375,-27.34375
124.265625,-6.8359375,-22.94921875,-20.5078125,-28.80859375
124.26953125,-31.73828125,-22.94921875,-20.01953125,-39.55078125
124.2734375,-7.32421875,-23.4375,-22.4609375,-49.8046875
124.27734375,-26.85546875,-23.92578125,-17.08984375,-49.31640625
124.28125,-10.7421875,-22.94921875,-17.578125,-30.2734375
124.28515625,-11.71875,-23.92578125,-20.99609375,-31.25
124.2890625,-33.69140625,-20.5078125,-23.4375,-35.15625
124.29296875,-12.20703125,-15.625,-22.4609375,-43.9453125
124.296875,1.953125,-14.6484375,-20.5078125,-53.7109375
124.30078125,-9.765625,-14.16015625,-17.578125,-44.43359375
124.3046875,-13.18359375,-18.5546875,-20.99609375,-29.78515625
124.30859375,-30.2734375,-19.53125,-22.4609375,-36.62109375
124.3125,-35.15625,-26.3671875,-27.83203125,-39.55078125
124.31640625,-25.390625,-33.69140625,-32.71484375,-41.9921875
124.3203125,-37.59765625,-36.1328125,-33.203125,-59.5703125
124.32421875,-35.64453125,-41.015625,-36.62109375,-31.25
124.328125,-42.96875,-35.64453125,-35.15625,-31.25
124.33203125,-48.828125,-31.25,-32.2265625,-57.12890625
124.3359375,-30.76171875,-28.80859375,-25.87890625,-52.734375
124.33984375,-39.55078125,-22.94921875,-22.94921875,-82.51953125
124.34375,-44.43359375,-27.83203125,-29.78515625,-72.265625
124.34765625,-39.0625,-32.71484375,-32.71484375,-56.640625
124.3515625,-30.76171875,-33.203125,-33.203125,-27.34375
124.35546875,-47.36328125,-33.203125,-37.109375,-40.0390625
124.359375,-53.22265625,-35.15625,-35.15625,-82.03125
124.36328125,-15.13671875,-37.59765625,-31.25,-45.8984375
124.3671875,-25.390625,-30.2734375,-30.76171875,-53.22265625
124.37109375,-31.73828125,-26.3671875,-30.76171875,-40.0390625
124.375,-34.1796875,-29.296875,-31.25,-12.20703125
124.37890625,-36.1328125,-31.73828125,-31.73828125,-33.69140625
124.3828125,-17.08984375,-37.109375,-36.62109375,-48.828125
124.38671875,-27.34375,-41.9921875,-36.62109375,-35.15625
124.390625,-40.52734375,-42.96875,-31.73828125,-39.55078125
124.39453125,-30.2734375,-40.0390625,-34.1796875,-54.19921875
124.3984375,-36.62109375,-34.1796875,-42.96875,-15.625
124.40234375,-61.03515625,-27.34375,-42.48046875,-40.0390625
124.40625,-8.7890625,-26.3671875,-33.203125,-62.98828125
124.41015625,-7.8125,-29.78515625,-36.1328125,-34.66796875
124.4140625,-56.640625,-25.87890625,-38.0859375,-20.01953125
124.41796875,-65.4296875,-25.87890625,-36.1328125,-25.390625
124.421875,-38.0859375,-29.78515625,-32.71484375,-18.5546875
124.42578125,-7.32421875,-18.5546875,-34.1796875,-3.41796875
124.4296875,-31.73828125,-10.25390625,-34.1796875,15.13671875
124.43359375,-57.6171875,-12.20703125,-29.78515625,-1.953125
124.4375,-52.734375,-17.578125,-35.64453125,-49.8046875
124.44140625,3.41796875,-22.94921875,-36.1328125,-66.89453125
124.4453125,-22.94921875,-27.83203125,-36.62109375,-65.91796875
124.44921875,-39.0625,-29.296875,-39.0625,-46.875
124.453125,-10.7421875,-22.4609375,-33.69140625,-45.8984375
124.45703125,-34.66796875,-18.5546875,-29.296875,-42.96875
124.4609375,-14.6484375,-25.390625,-33.203125,-31.25
124.46484375,1.46484375,-26.3671875,-28.80859375,41.50390625
124.46875,-21.97265625,-18.06640625,-25.87890625,14.16015625
124.47265625,-16.11328125,-15.13671875,-25.390625,-67.3828125
124.4765625,-15.13671875,-21.97265625,-24.90234375,-27.34375
124.48046875,-19.53125,-21.484375,-28.3203125,-14.16015625
124.484375,-54.6875,-23.4375,-28.3203125,-28.80859375
124.48828125,-24.90234375,-23.92578125,-22.4609375,-28.3203125
124.4921875,-16.11328125,-24.90234375,-20.5078125,-42.96875
124.49609375,-22.94921875,-32.71484375,-28.3203125,-17.08984375
124.5,-39.55078125,-30.76171875,-30.76171875,-4.8828125
124.50390625,-38.0859375,-27.34375,-29.78515625,-19.04296875
124.5078125,-21.97265625,-30.2734375,-30.2734375,-5.859375
124.51171875,-34.1796875,-28.80859375,-28.80859375,-30.76171875
124.515625,-41.015625,-24.90234375,-27.83203125,-42.48046875
124.51953125,-48.33984375,-31.25,-31.73828125,-38.57421875
124.5234375,-48.33984375,-31.25,-38.57421875,-59.08203125
124.52734375,-61.5234375,-23.4375,-41.50390625,-54.19921875
124.53125,-44.43359375,-25.87890625,-33.203125,-12.20703125
124.53515625,-20.5078125,-25.87890625,-25.87890625,-5.37109375
124.5390625,-20.5078125,-30.2734375,-25.87890625,0.9765625
124.54296875,-63.96484375,-33.203125,-29.296875,7.8125
124.546875,-81.0546875,-23.92578125,-30.2734375,-41.015625
124.55078125,-39.0625,-22.94921875,-29.296875,-20.5078125
124.5546875,-36.62109375,-29.296875,-33.203125,-28.80859375
124.55859375,-61.03515625,-30.76171875,-37.109375,-62.5
124.5625,-53.7109375,-26.3671875,-29.78515625,-20.01953125
124.56640625,-26.3671875,-24.4140625,-28.3203125,-23.92578125
124.5703125,-44.921875,-28.3203125,-35.15625,-48.828125
124.57421875,-63.96484375,-33.69140625,-30.76171875,-12.20703125
124.578125,-70.3125,-28.80859375,-30.2734375,-3.90625
124.58203125,-23.4375,-23.4375,-39.55078125,-21.484375
124.5859375,-28.80859375,-25.87890625,-42.96875,-0.9765625
124.58984375,-68.84765625,-27.34375,-38.57421875,-9.765625
124.59375,-60.05859375,-24.90234375,-41.50390625,-51.7578125
124.59765625,-87.40234375,-26.85546875,-49.31640625,-41.015625
124.6015625,-74.21875,-27.34375,-49.8046875,-48.33984375
124.60546875,-57.6171875,-23.4375,-45.8984375,-98.14453125
124.609375,-80.078125,-25.87890625,-49.31640625,-73.73046875
124.61328125,-59.5703125,-34.66796875,-56.15234375,-39.0625
124.6171875,-46.38671875,-39.0625,-50.29296875,-14.6484375
124.62109375,-60.05859375,-40.0390625,-47.8515625,-27.34375
124.625,-90.33203125,-38.0859375,-49.8046875,-74.70703125
124.62890625,-65.4296875,-44.43359375,-45.8984375,-74.21875
124.6328125,-43.45703125,-49.31640625,-45.8984375,-60.546875
124.63671875,-56.640625,-45.8984375,-49.31640625,-69.3359375
124.640625,-59.08203125,-48.828125,-48.33984375,-62.98828125
124.64453125,-69.3359375,-56.15234375,-47.8515625,-66.89453125
124.6484375,-65.91796875,-61.5234375,-49.31640625,-79.1015625
124.65234375,-92.28515625,-55.6640625,-52.734375,-107.421875
124.65625,-134.27734375,-48.828125,-53.22265625,-78.61328125
124.66015625,-108.88671875,-49.31640625,-46.38671875,-75.1953125
124.6640625,-104.98046875,-48.828125,-42.96875,-106.4453125
124.66796875,-118.65234375,-46.38671875,-44.43359375,-98.6328125
124.671875,-153.80859375,-41.50390625,-42.96875,-111.81640625
124.67578125,-171.38671875,-41.9921875,-40.0390625,-146.484375
124.6796875,-124.0234375,-41.50390625,-39.0625,-118.65234375
124.68359375,-126.46484375,-36.1328125,-41.50390625,-113.76953125
124.6875,-169.43359375,-38.57421875,-43.9453125,-180.6640625
124.69140625,-175.78125,-38.0859375,-41.9921875,-177.734375
124.6953125,-184.08203125,-36.62109375,-52.734375,-183.59375
124.69921875,-168.9453125,-38.57421875,-56.640625,-173.33984375
124.703125,-141.6015625,-33.69140625,-50.78125,-151.3671875
124.70703125,-180.17578125,-25.87890625,-41.015625,-167.48046875
124.7109375,-158.203125,-22.94921875,-33.203125,-153.80859375
124.71484375,-153.3203125,-23.4375,-32.2265625,-132.32421875
124.71875,-147.4609375,-26.85546875,-32.2265625,-132.8125
124.72265625,-120.60546875,-29.296875,-35.15625,-161.62109375
124.7265625,-143.5546875,-24.90234375,-34.1796875,-155.76171875
124.73046875,-130.859375,-20.99609375,-24.90234375,-110.83984375
124.734375,-99.12109375,-18.06640625,-24.90234375,-101.5625
124.73828125,-98.6328125,-19.04296875,-34.1796875,-86.9140625
124.7421875,-85.44921875,-23.92578125,-30.76171875,-68.84765625
124.74609375,-94.7265625,-26.3671875,-26.85546875,-52.734375
124.75,-75.68359375,-31.25,-25.87890625,-67.87109375
124.75390625,-64.94140625,-36.62109375,-29.296875,-85.44921875
124.7578125,-82.03125,-42.48046875,-33.203125,-66.89453125
124.76171875,-58.10546875,-42.96875,-27.34375,-26.3671875
124.765625,-42.48046875,-46.38671875,-33.203125,-19.53125
124.76953125,-40.52734375,-45.41015625,-37.109375,-28.3203125
124.7734375,-40.0390625,-38.0859375,-38.0859375,-34.1796875
124.77734375,-29.78515625,-41.015625,-34.66796875,-26.3671875
124.78125,9.27734375,-42.96875,-26.85546875,-7.32421875
124.78515625,14.6484375,-40.52734375,-27.34375,20.5078125
124.7890625,1.46484375,-42.96875,-25.87890625,12.6953125
124.79296875,-0.48828125,-42.96875,-27.34375,-0.48828125
124.796875,-24.4140625,-44.43359375,-31.25,-4.39453125
124.80078125,-16.6015625,-38.57421875,-31.73828125,-13.18359375
124.8046875,41.015625,-31.25,-29.296875,-1.953125
124.80859375,-13.671875,-35.15625,-21.484375,-11.71875
124.8125,-41.015625,-35.64453125,-20.99609375,-22.4609375
124.81640625,7.32421875,-33.203125,-29.296875,7.8125
124.8203125,-28.80859375,-35.15625,-32.2265625,32.71484375
124.82421875,-36.1328125,-39.55078125,-30.76171875,2.9296875
124.828125,6.34765625,-41.50390625,-31.73828125,-3.41796875
124.83203125,-12.20703125,-45.41015625,-40.0390625,15.625
124.8359375,-9.27734375,-52.734375,-38.57421875,7.32421875
124.83984375,1.46484375,-55.17578125,-34.66796875,25.390625
124.84375,17.578125,-48.828125,-39.55078125,-2.44140625
124.84765625,-4.39453125,-48.33984375,-40.0390625,-26.85546875
124.8515625,-27.83203125,-54.19921875,-38.0859375,-32.2265625
124.85546875,-13.18359375,-48.33984375,-38.0859375,-49.31640625
124.859375,13.671875,-41.9921875,-33.69140625,12.20703125
124.86328125,31.73828125,-42.96875,-31.73828125,80.56640625
124.8671875,11.23046875,-41.50390625,-36.1328125,27.34375
124.87109375,5.859375,-44.43359375,-37.109375,-42.96875
124.875,2.44140625,-53.22265625,-41.9921875,-31.25
124.87890625,11.71875,-52.734375,-47.36328125,13.671875
124.8828125,13.18359375,-43.9453125,-40.52734375,15.13671875
124.88671875,-16.11328125,-35.64453125,-35.15625,-24.90234375
124.890625,-26.3671875,-39.0625,-40.0390625,2.44140625
124.89453125,8.7890625,-42.96875,-40.0390625,-1.953125
124.8984375,52.734375,-40.52734375,-31.73828125,-16.6015625
124.90234375,20.99609375,-40.52734375,-26.85546875,12.20703125
124.90625,-12.6953125,-39.55078125,-28.3203125,-2.44140625
124.91015625,-20.99609375,-33.203125,-25.390625,-0.9765625
124.9140625,-2.44140625,-29.78515625,-20.99609375,9.765625
124.91796875,36.62109375,-31.25,-20.5078125,6.34765625
124.921875,13.671875,-29.78515625,-27.83203125,-4.39453125
124.92578125,-2.9296875,-27.34375,-31.73828125,-24.90234375
124.9296875,1.953125,-31.25,-27.34375,11.71875
124.93359375,14.6484375,-31.25,-27.83203125,13.671875
124.9375,-16.11328125,-28.80859375,-28.80859375,-35.64453125
124.94140625,-38.57421875,-29.296875,-25.390625,-22.4609375
124.9453125,-2.44140625,-28.80859375,-22.4609375,7.8125
124.94921875,-5.37109375,-29.296875,-23.4375,53.7109375
124.953125,-47.36328125,-27.34375,-23.92578125,23.92578125
124.95703125,-28.3203125,-27.34375,-23.92578125,-81.0546875
124.9609375,16.11328125,-31.73828125,-28.3203125,-60.05859375
124.96484375,2.44140625,-29.78515625,-29.78515625,-17.578125
124.96875,13.671875,-30.2734375,-24.4140625,-19.53125
124.97265625,14.16015625,-35.15625,-23.4375,-11.71875
124.9765625,-20.01953125,-32.2265625,-22.94921875,-10.25390625
124.98046875,-48.33984375,-30.76171875,-26.85546875,-18.06640625
124.984375,-22.94921875,-33.203125,-30.2734375,-30.76171875
124.98828125,-2.44140625,-33.69140625,-27.34375,-24.4140625
124.9921875,0.9765625,-32.2265625,-26.85546875,-22.4609375
124.99609375,1.953125,-31.73828125,-28.80859375,-16.11328125
125.0,-7.8125,-33.69140625,-33.69140625,44.43359375
125.00390625,-25.87890625,-33.69140625,-27.34375,3.41796875
125.0078125,-21.97265625,-31.25,-29.78515625,-73.73046875
125.01171875,-12.20703125,-25.87890625,-41.015625,-52.24609375
125.015625,3.41796875,-22.94921875,-31.73828125,-20.99609375
125.01953125,7.8125,-25.390625,-26.3671875,-37.59765625
125.0234375,-25.87890625,-27.34375,-26.85546875,-31.73828125
125.02734375,-29.78515625,-27.83203125,-28.3203125,-8.7890625
125.03125,-7.32421875,-28.3203125,-32.71484375,-51.26953125
125.03515625,-11.23046875,-29.78515625,-35.15625,-40.52734375
125.0390625,-19.53125,-28.3203125,-32.2265625,-3.41796875
125.04296875,-30.2734375,-26.85546875,-27.34375,-24.90234375
125.046875,-25.390625,-25.390625,-27.34375,-38.57421875
125.05078125,-13.18359375,-26.85546875,-24.90234375,-22.94921875
125.0546875,-11.23046875,-30.76171875,-27.83203125,-29.78515625
125.05859375,-20.01953125,-26.3671875,-27.83203125,-36.1328125
125.0625,-20.5078125,-24.90234375,-23.4375,-5.859375
125.06640625,-11.23046875,-27.34375,-27.34375,-8.30078125
125.0703125,-36.62109375,-30.76171875,-29.296875,-28.3203125
125.07421875,-31.25,-32.71484375,-29.296875,-22.4609375
125.078125,-7.32421875,-28.80859375,-29.296875,-37.59765625
125.08203125,-24.4140625,-27.34375,-26.85546875,-12.6953125
125.0859375,-24.90234375,-32.2265625,-31.73828125,-20.01953125
125.08984375,21.484375,-32.2265625,-37.59765625,-57.12890625
125.09375,11.71875,-25.87890625,-30.76171875,-43.45703125
125.09765625,-32.2265625,-28.3203125,-31.73828125,-38.0859375
125.1015625,-17.578125,-32.71484375,-37.59765625,-44.921875
125.10546875,-9.765625,-35.15625,-39.55078125,-38.0859375
125.109375,-50.29296875,-36.62109375,-37.109375,-4.8828125
125.11328125,-40.0390625,-37.109375,-37.59765625,-4.39453125
125.1171875,-10.7421875,-32.2265625,-33.203125,-60.546875
125.12109375,-23.92578125,-21.97265625,-23.92578125,-73.2421875
125.125,-22.4609375,-17.578125,-19.53125,-29.78515625
125.12890625,-20.5078125,-22.4609375,-19.04296875,-2.44140625
125.1328125,-25.390625,-20.01953125,-22.4609375,-6.34765625
125.13671875,-17.578125,-22.4609375,-25.390625,-1.953125
125.140625,-13.18359375,-29.296875,-30.76171875,-4.8828125
125.14453125,-47.8515625,-26.3671875,-33.69140625,-23.4375
125.1484375,-44.921875,-25.87890625,-31.25,-34.1796875
125.15234375,-12.20703125,-26.3671875,-32.2265625,-39.0625
125.15625,-15.13671875,-28.80859375,-32.2265625,-24.90234375
125.16015625,-18.06640625,-28.3203125,-25.87890625,6.34765625
125.1640625,-39.0625,-24.90234375,-28.3203125,-2.44140625
125.16796875,-8.30078125,-26.3671875,-32.71484375,-19.04296875
125.171875,11.23046875,-27.34375,-34.1796875,-44.43359375
125.17578125,-48.828125,-17.578125,-37.109375,-60.05859375
125.1796875,-37.59765625,-9.27734375,-33.203125,-39.55078125
125.18359375,-17.578125,-14.6484375,-32.2265625,-21.97265625
125.1875,-20.5078125,-23.4375,-34.66796875,-11.71875
125.19140625,-9.27734375,-27.83203125,-28.3203125,-15.13671875
125.1953125,-18.06640625,-23.92578125,-26.85546875,-30.2734375
125.19921875,-34.1796875,-22.94921875,-28.80859375,-34.1796875
125.203125,-11.71875,-23.92578125,-26.3671875,-25.87890625
125.20703125,-30.76171875,-20.99609375,-25.87890625,-15.625
125.2109375,-47.36328125,-24.4140625,-31.73828125,-25.390625
125.21484375,-35.15625,-24.90234375,-31.25,-19.53125
125.21875,-55.6640625,-18.5546875,-21.97265625,-34.1796875
125.22265625,-27.83203125,-19.04296875,-21.484375,-42.48046875
125.2265625,-29.78515625,-21.484375,-25.390625,0.0
125.23046875,-12.20703125,-24.90234375,-25.390625,-16.11328125
125.234375,-2.44140625,-28.3203125,-24.90234375,-44.43359375
125.23828125,-30.2734375,-35.15625,-22.4609375,-18.06640625
125.2421875,-30.76171875,-36.62109375,-20.99609375,17.08984375
125.24609375,-18.5546875,-28.3203125,-22.4609375,22.4609375
125.25,-35.15625,-24.90234375,-30.76171875,-52.734375
125.25390625,-45.8984375,-31.25,-35.15625,-61.03515625
125.2578125,-60.546875,-37.59765625,-37.59765625,-45.8984375
125.26171875,-63.96484375,-34.66796875,-33.203125,-36.62109375
125.265625,-32.2265625,-33.69140625,-28.80859375,-20.5078125
125.26953125,-22.4609375,-32.2265625,-32.2265625,-29.296875
125.2734375,-11.23046875,-28.3203125,-31.73828125,-25.87890625
125.27734375,-17.578125,-30.76171875,-27.34375,-26.85546875
125.28125,-24.90234375,-32.71484375,-28.3203125,-27.83203125
125.28515625,-36.62109375,-34.66796875,-33.69140625,-28.3203125
125.2890625,-44.43359375,-37.59765625,-32.2265625,-42.48046875
125.29296875,-30.76171875,-35.15625,-27.83203125,-18.06640625
125.296875,-20.5078125,-30.2734375,-26.85546875,9.765625
125.30078125,-27.34375,-31.25,-31.25,-25.390625
125.3046875,-55.17578125,-31.73828125,-31.73828125,-68.359375
125.30859375,-48.33984375,-36.1328125,-29.78515625,-43.9453125
125.3125,-47.36328125,-39.0625,-28.80859375,-32.71484375
125.31640625,-54.6875,-41.50390625,-35.15625,-36.1328125
125.3203125,-43.9453125,-42.48046875,-36.1328125,-38.0859375
125.32421875,-33.203125,-38.57421875,-28.3203125,-27.34375
125.328125,-8.30078125,-33.69140625,-27.83203125,-32.2265625
125.33203125,-30.2734375,-26.85546875,-26.85546875,-55.17578125
125.3359375,-56.640625,-30.76171875,-30.2734375,-53.7109375
125.33984375,-25.390625,-34.1796875,-34.66796875,-23.4375
125.34375,-49.31640625,-30.76171875,-36.1328125,-56.15234375
125.34765625,-62.01171875,-36.62109375,-37.59765625,-79.58984375
125.3515625,-29.78515625,-36.62109375,-37.109375,-31.73828125
125.35546875,-26.3671875,-36.1328125,-40.52734375,-27.34375
125.359375,-26.85546875,-37.109375,-36.1328125,-35.64453125
125.36328125,-4.8828125,-33.69140625,-34.66796875,-36.1328125
125.3671875,-31.25,-31.73828125,-35.64453125,-15.625
125.37109375,-68.84765625,-23.92578125,-30.76171875,0.0
125.375,-29.296875,-30.2734375,-28.3203125,-41.015625
125.37890625,-41.015625,-34.1796875,-34.66796875,-54.19921875
125.3828125,-46.38671875,-33.203125,-39.55078125,-54.6875
125.38671875,-34.1796875,-38.0859375,-41.9921875,-66.40625
125.390625,-33.203125,-36.62109375,-39.0625,-23.92578125
125.39453125,-20.5078125,-35.64453125,-34.1796875,-35.64453125
125.3984375,-26.3671875,-33.69140625,-40.0390625,-37.109375
125.40234375,-51.26953125,-34.66796875,-39.55078125,-26.3671875
125.40625,-40.52734375,-33.69140625,-33.69140625,-36.1328125
125.41015625,-45.8984375,-29.78515625,-35.64453125,-50.29296875
125.4140625,-34.1796875,-39.0625,-36.1328125,-27.83203125
125.41796875,-22.4609375,-40.0390625,-32.71484375,-33.203125
125.421875,-3.41796875,-32.71484375,-39.55078125,-64.453125
125.42578125,-32.2265625,-34.66796875,-41.50390625,-16.6015625
125.4296875,-85.44921875,-37.109375,-37.59765625,-20.99609375
125.43359375,-47.8515625,-36.62109375,-40.0390625,-50.29296875
125.4375,-17.578125,-40.0390625,-39.55078125,-32.71484375
125.44140625,-35.15625,-44.921875,-35.64453125,-57.6171875
125.4453125,-67.87109375,-40.52734375,-40.0390625,-88.8671875
125.44921875,-48.828125,-35.15625,-42.96875,-69.82421875
125.453125,-45.8984375,-33.69140625,-39.0625,-68.359375
125.45703125,-46.875,-36.62109375,-35.64453125,-74.21875
125.4609375,-17.08984375,-39.55078125,-30.76171875,-75.68359375
125.46484375,-31.25,-41.9921875,-32.71484375,-84.47265625
125.46875,-67.87109375,-46.38671875,-36.1328125,-64.94140625
125.47265625,-45.8984375,-44.43359375,-35.64453125,-68.359375
125.4765625,-53.7109375,-42.96875,-37.109375,-63.96484375
125.48046875,-62.98828125,-47.36328125,-38.0859375,-26.85546875
125.484375,-53.22265625,-50.78125,-36.62109375,-29.78515625
125.48828125,-28.80859375,-46.38671875,-32.71484375,-11.23046875
125.4921875,-24.90234375,-43.9453125,-32.71484375,-75.68359375
125.49609375,-74.21875,-47.8515625,-33.69140625,-94.7265625
125.5,54.19921875,-45.8984375,-35.15625,-55.6640625
125.50390625,-0.9765625,-36.1328125,-32.71484375,-62.98828125
125.5078125,-98.6328125,-29.78515625,-27.34375,-10.7421875
125.51171875,1.46484375,-31.73828125,-32.71484375,-40.52734375
125.515625,-82.51953125,-33.203125,-37.109375,-125.48828125
125.51953125,-77.1484375,-33.203125,-36.1328125,-68.84765625
125.5234375,-36.62109375,-30.2734375,-34.66796875,-42.48046875
125.52734375,-41.9921875,-26.85546875,-35.64453125,-58.10546875
125.53125,-33.69140625,-25.87890625,-36.1328125,-44.43359375
125.53515625,-43.45703125,-20.01953125,-34.1796875,-5.859375
125.5390625,-35.15625,-23.4375,-33.203125,3.41796875
125.54296875,-43.45703125,-30.2734375,-33.69140625,-109.86328125
125.546875,-50.78125,-27.34375,-35.64453125,-112.3046875
125.55078125,-83.0078125,-29.78515625,-42.96875,-91.796875
125.5546875,-62.5,-29.78515625,-39.55078125,-80.56640625
125.55859375,-52.24609375,-29.296875,-33.203125,-62.98828125
125.5625,-58.59375,-27.83203125,-30.76171875,-41.015625
125.56640625,-38.57421875,-32.71484375,-28.80859375,-53.7109375
125.5703125,-62.98828125,-36.1328125,-32.71484375,-83.984375
125.57421875,-98.14453125,-31.25,-35.15625,-58.59375
125.578125,-44.43359375,-34.66796875,-27.83203125,-35.15625
125.58203125,-23.4375,-35.64453125,-23.4375,-8.7890625
125.5859375,-34.66796875,-34.66796875,-25.390625,19.04296875
125.58984375,-20.99609375,-38.0859375,-22.94921875,-14.6484375
125.59375,-23.92578125,-37.59765625,-24.4140625,-32.71484375
125.59765625,-56.640625,-36.1328125,-24.90234375,-4.39453125
125.6015625,-54.19921875,-35.15625,-26.85546875,-8.7890625
125.60546875,-16.11328125,-34.66796875,-30.2734375,-27.83203125
125.609375,-40.52734375,-38.57421875,-33.203125,-17.08984375
125.61328125,-33.69140625,-40.0390625,-35.15625,-1.46484375
125.6171875,-34.1796875,-41.015625,-33.69140625,12.20703125
125.62109375,-45.8984375,-39.0625,-31.73828125,8.7890625
125.625,-44.43359375,-35.64453125,-35.64453125,-16.6015625
125.62890625,-41.50390625,-40.0390625,-37.59765625,-29.78515625
125.6328125,-26.85546875,-40.52734375,-33.69140625,-37.109375
125.63671875,-46.38671875,-37.109375,-29.78515625,7.8125
125.640625,-41.015625,-36.1328125,-35.15625,-2.9296875
125.64453125,-58.10546875,-38.57421875,-40.0390625,-37.59765625
125.6484375,-66.40625,-42.96875,-36.1328125,-21.484375
125.65234375,-30.2734375,-41.9921875,-39.55078125,-10.25390625
125.65625,-63.4765625,-35.15625,-44.43359375,-19.04296875
125.66015625,-44.921875,-27.34375,-43.45703125,-22.94921875
125.6640625,-51.26953125,-22.4609375,-45.8984375,-6.8359375
125.66796875,-48.828125,-26.85546875,-39.55078125,-6.34765625
125.671875,-42.96875,-35.64453125,-27.83203125,-35.15625
125.67578125,-52.734375,-39.0625,-22.4609375,-47.36328125
125.6796875,-62.98828125,-39.0625,-27.83203125,-54.6875
125.68359375,-55.6640625,-37.109375,-36.62109375,-28.3203125
125.6875,-12.20703125,-33.69140625,-34.66796875,-12.6953125
125.69140625,-60.546875,-30.2734375,-34.1796875,-58.10546875
125.6953125,-65.91796875,-33.69140625,-34.1796875,-43.45703125
125.69921875,-47.36328125,-38.0859375,-34.1796875,-34.66796875
125.703125,-66.40625,-40.52734375,-42.96875,-38.0859375
125.70703125,-36.62109375,-45.41015625,-47.36328125,-24.90234375
125.7109375,-24.90234375,-44.43359375,-37.109375,-1.953125
125.71484375,-4.39453125,-36.62109375,-33.203125,5.37109375
125.71875,-14.16015625,-30.76171875,-36.62109375,-33.203125
125.72265625,-70.80078125,-35.15625,-40.0390625,-46.875
125.7265625,-50.29296875,-43.9453125,-43.45703125,-34.66796875
125.73046875,-30.2734375,-35.64453125,-37.109375,-47.36328125
125.734375,-33.203125,-26.85546875,-30.2734375,-37.59765625
125.73828125,-40.52734375,-27.34375,-32.71484375,-25.87890625
125.7421875,-37.109375,-25.390625,-26.85546875,-28.3203125
125.74609375,-43.45703125,-30.76171875,-22.4609375,-15.13671875
125.75,-50.29296875,-36.1328125,-29.78515625,-5.37109375
125.75390625,-39.0625,-29.78515625,-30.76171875,-47.8515625
125.7578125,-46.38671875,-32.2265625,-32.71484375,-84.47265625
125.76171875,-43.9453125,-29.78515625,-27.83203125,-49.31640625
125.765625,-35.15625,-31.25,-25.87890625,-31.25
125.76953125,-32.2265625,-31.73828125,-27.34375,-33.69140625
125.7734375,-32.2265625,-27.34375,-30.76171875,-34.1796875
125.77734375,-39.0625,-27.83203125,-36.62109375,-27.34375
125.78125,-41.9921875,-24.90234375,-37.109375,-41.50390625
125.78515625,-29.78515625,-24.4140625,-35.15625,-38.0859375
125.7890625,-28.80859375,-27.83203125,-37.59765625,-25.87890625
125.79296875,-29.296875,-27.83203125,-36.1328125,-43.9453125
125.796875,-43.9453125,-21.97265625,-35.64453125,-54.6875
125.80078125,-68.84765625,-18.5546875,-37.59765625,-31.73828125
125.8046875,-30.2734375,-15.625,-32.71484375,-27.34375
125.80859375,-46.38671875,-15.625,-38.57421875,-64.453125
125.8125,-86.9140625,-16.11328125,-44.921875,-69.82421875
125.81640625,-66.40625,-13.18359375,-39.55078125,-70.80078125
125.8203125,-5.859375,-16.11328125,-40.0390625,-69.82421875
125.82421875,-4.8828125,-19.53125,-42.96875,-48.33984375
125.828125,-52.24609375,-16.6015625,-41.9921875,-65.4296875
125.83203125,-32.2265625,-15.625,-38.0859375,-96.19140625
125.8359375,-38.57421875,-17.08984375,-32.2265625,-81.54296875
125.83984375,-20.01953125,-17.08984375,-30.2734375,-73.73046875
125.84375,-31.73828125,-20.5078125,-29.296875,-92.28515625
125.84765625,-68.359375,-29.296875,-33.203125,-60.05859375
125.8515625,-64.94140625,-41.9921875,-35.15625,-62.5
125.85546875,-60.546875,-41.9921875,-35.64453125,-120.60546875
125.859375,-63.96484375,-39.55078125,-38.0859375,-79.58984375
125.86328125,-109.375,-35.64453125,-36.62109375,-85.44921875
125.8671875,-112.3046875,-31.73828125,-39.55078125,-161.62109375
125.87109375,-95.21484375,-35.64453125,-34.66796875,-163.57421875
125.875,-113.28125,-31.25,-30.2734375,-151.3671875
125.87890625,-126.46484375,-31.25,-33.203125,-163.57421875
125.8828125,-136.23046875,-26.3671875,-36.1328125,-173.33984375
125.88671875,-135.25390625,-18.06640625,-34.1796875,-171.875
125.890625,-187.01171875,-18.06640625,-35.15625,-217.7734375
125.89453125,-232.91015625,-17.578125,-32.2265625,-171.38671875
125.8984375,-210.44921875,-17.578125,-34.1796875,-165.52734375
125.90234375,-184.5703125,-17.08984375,-36.1328125,-245.1171875
125.90625,-166.50390625,-11.71875,-29.78515625,-253.90625
125.91015625,-205.078125,-9.765625,-38.0859375,-237.79296875
125.9140625,-197.265625,-11.71875,-40.0390625,-210.44921875
125.91796875,-160.15625,-10.25390625,-38.0859375,-200.1953125
125.921875,-176.26953125,-18.5546875,-41.9921875,-187.98828125
125.92578125,-158.203125,-24.90234375,-35.64453125,-165.0390625
125.9296875,-169.921875,-22.4609375,-36.1328125,-147.4609375
125.93359375,-147.4609375,-17.08984375,-34.66796875,-117.1875
125.9375,-111.81640625,-13.18359375,-33.203125,-107.421875
125.94140625,-104.4921875,-20.5078125,-35.64453125,-119.140625
125.9453125,-89.35546875,-23.4375,-32.2265625,-87.40234375
125.94921875,-64.94140625,-21.97265625,-26.3671875,-71.2890625
125.953125,-63.96484375,-20.5078125,-25.87890625,-85.9375
125.95703125,-84.47265625,-20.01953125,-33.203125,-86.42578125
125.9609375,-111.328125,-20.01953125,-36.62109375,-61.5234375
125.96484375,-21.484375,-20.99609375,-30.2734375,-78.125
125.96875,17.08984375,-22.94921875,-20.99609375,-56.15234375
125.97265625,-83.49609375,-22.94921875,-28.3203125,5.859375
125.9765625,-55.17578125,-26.85546875,-28.80859375,-32.71484375
125.98046875,-5.859375,-33.203125,-28.3203125,-24.90234375
125.984375,-0.48828125,-28.80859375,-32.2265625,1.953125
125.98828125,8.30078125,-26.85546875,-31.73828125,-6.34765625
125.9921875,-3.90625,-36.62109375,-34.66796875,-12.20703125
125.99609375,-6.8359375,-43.9453125,-31.73828125,5.859375
126.0,-3.41796875,-43.9453125,-23.92578125,-13.18359375
126.00390625,-26.3671875,-44.921875,-28.3203125,-32.71484375
126.0078125,-12.6953125,-48.33984375,-38.0859375,28.80859375
126.01171875,7.32421875,-46.875,-32.71484375,21.484375
126.015625,53.7109375,-45.41015625,-32.71484375,-20.5078125
126.01953125,39.0625,-48.828125,-34.1796875,12.20703125
126.0234375,-11.23046875,-46.38671875,-31.25,15.625
126.02734375,3.41796875,-41.50390625,-40.0390625,6.8359375
126.03125,-11.71875,-41.015625,-44.921875,32.71484375
126.03515625,-19.04296875,-41.50390625,-40.52734375,45.8984375
126.0390625,40.0390625,-38.0859375,-36.1328125,32.2265625
126.04296875,23.92578125,-32.2265625,-36.62109375,13.18359375
126.046875,19.53125,-30.2734375,-41.50390625,-12.6953125
126.05078125,67.87109375,-28.3203125,-45.8984375,27.34375
126.0546875,50.29296875,-24.90234375,-37.109375,37.59765625
126.05859375,10.25390625,-29.296875,-27.83203125,17.578125
126.0625,10.7421875,-30.2734375,-36.1328125,25.87890625
126.06640625,12.20703125,-22.94921875,-37.59765625,50.78125
126.0703125,-12.6953125,-24.90234375,-36.1328125,26.85546875
126.07421875,7.32421875,-28.80859375,-31.73828125,36.62109375
126.078125,36.62109375,-30.2734375,-28.3203125,70.80078125
126.08203125,16.11328125,-32.2265625,-31.73828125,34.1796875
126.0859375,37.59765625,-30.2734375,-32.2265625,20.99609375
126.08984375,27.34375,-27.83203125,-31.73828125,4.39453125
126.09375,6.34765625,-30.76171875,-31.25,25.390625
126.09765625,24.4140625,-34.1796875,-31.25,36.1328125
126.1015625,28.80859375,-30.76171875,-31.25,65.91796875
126.10546875,14.6484375,-26.85546875,-30.76171875,66.40625
126.109375,24.90234375,-29.296875,-36.1328125,1.46484375
126.11328125,18.06640625,-25.87890625,-32.71484375,20.99609375
126.1171875,21.97265625,-26.3671875,-28.3203125,48.828125
126.12109375,20.99609375,-31.73828125,-28.80859375,35.64453125
126.125,10.25390625,-25.87890625,-31.25,24.4140625
126.12890625,19.53125,-29.296875,-36.1328125,45.41015625
126.1328125,-22.4609375,-30.76171875,-28.3203125,55.6640625
126.13671875,-18.06640625,-26.85546875,-29.78515625,62.98828125
126.140625,31.73828125,-27.83203125,-34.1796875,107.421875
126.14453125,41.9921875,-30.2734375,-34.66796875,92.28515625
126.1484375,4.8828125,-35.15625,-40.52734375,38.0859375
126.15234375,-12.6953125,-41.015625,-37.109375,20.99609375
126.15625,22.94921875,-41.015625,-37.109375,0.48828125
126.16015625,10.7421875,-34.66796875,-33.203125,28.80859375
126.1640625,-34.1796875,-30.2734375,-28.3203125,25.390625
126.16796875,-19.04296875,-34.1796875,-34.1796875,-10.25390625
126.171875,-20.99609375,-39.0625,-42.96875,-19.04296875
126.17578125,-18.06640625,-39.0625,-39.55078125,7.32421875
126.1796875,-12.6953125,-40.0390625,-35.15625,7.32421875
126.18359375,5.37109375,-42.96875,-37.59765625,-15.625
126.1875,24.4140625,-41.015625,-35.15625,-6.34765625
126.19140625,-54.19921875,-45.41015625,-41.9921875,-36.62109375
126.1953125,-81.0546875,-45.8984375,-50.78125,-65.91796875
126.19921875,-29.78515625,-42.48046875,-50.78125,-34.1796875
126.203125,-43.9453125,-41.015625,-44.921875,-35.15625
126.20703125,-83.0078125,-33.69140625,-42.48046875,-56.15234375
126.2109375,-51.7578125,-34.66796875,-42.48046875,-54.19921875
126.21484375,-56.640625,-34.66796875,-46.875,-44.921875
126.21875,1.953125,-38.0859375,-48.828125,-25.390625
126.22265625,13.18359375,-40.52734375,-42.48046875,-53.22265625
126.2265625,-59.08203125,-37.109375,-39.55078125,-31.25
126.23046875,-62.01171875,-30.76171875,-40.0390625,0.9765625
126.234375,-50.78125,-29.296875,-38.0859375,-59.5703125
126.23828125,-27.83203125,-32.71484375,-34.1796875,-76.66015625
126.2421875,-45.8984375,-33.203125,-38.57421875,-38.57421875
126.24609375,-46.875,-35.15625,-42.96875,-30.2734375
126.25,-38.57421875,-32.2265625,-42.48046875,-48.828125
126.25390625,-50.29296875,-28.80859375,-34.1796875,-24.4140625
126.2578125,6.8359375,-32.2265625,-31.25,-20.01953125
126.26171875,11.23046875,-31.73828125,-32.2265625,-69.3359375
126.265625,-15.625,-32.71484375,-23.92578125,-38.0859375
126.26953125,-14.16015625,-34.66796875,-36.1328125,-16.11328125
126.2734375,-29.78515625,-36.1328125,-46.38671875,-59.5703125
126.27734375,-34.66796875,-42.48046875,-39.0625,-50.29296875
126.28125,-23.92578125,-37.59765625,-36.62109375,-37.59765625
126.28515625,-20.01953125,-33.203125,-33.69140625,-55.17578125
126.2890625,-41.9921875,-32.2265625,-36.62109375,-61.5234375
126.29296875,-34.1796875,-30.2734375,-36.62109375,-47.36328125
126.296875,-64.453125,-33.69140625,-37.109375,-46.38671875
126.30078125,-44.921875,-30.2734375,-35.64453125,-34.1796875
126.3046875,-6.8359375,-22.94921875,-31.25,1.953125
126.30859375,-50.78125,-18.5546875,-35.15625,-46.38671875
126.3125,-34.1796875,-15.625,-37.59765625,-104.4921875
126.31640625,-34.1796875,-20.5078125,-34.66796875,-68.84765625
126.3203125,-19.53125,-22.94921875,-31.73828125,-35.15625
126.32421875,-18.06640625,-18.06640625,-37.109375,-57.6171875
126.328125,-27.34375,-15.625,-40.0390625,-56.640625
126.33203125,-22.4609375,-20.01953125,-35.15625,-53.22265625
126.3359375,-21.97265625,-22.94921875,-40.52734375,-56.15234375
126.33984375,-43.45703125,-27.34375,-47.36328125,-33.203125
126.34375,-47.36328125,-29.296875,-49.8046875,-24.4140625
126.34765625,-41.50390625,-25.87890625,-47.8515625,-55.6640625
126.3515625,-55.6640625,-28.80859375,-44.43359375,-56.15234375
126.35546875,-41.9921875,-27.34375,-42.48046875,-63.4765625
126.359375,-32.71484375,-20.5078125,-39.55078125,-38.0859375
126.36328125,-41.015625,-23.92578125,-35.64453125,-26.85546875
126.3671875,-45.8984375,-35.64453125,-39.55078125,-65.4296875
126.37109375,-52.734375,-39.0625,-42.96875,-86.9140625
126.375,-35.15625,-39.0625,-42.96875,-48.33984375
126.37890625,-40.52734375,-42.96875,-38.0859375,-6.34765625
126.3828125,-44.921875,-36.1328125,-36.62109375,-59.08203125
126.38671875,3.41796875,-32.71484375,-41.015625,-124.51171875
126.390625,16.11328125,-34.66796875,-37.59765625,-105.46875
126.39453125,5.37109375,-39.55078125,-37.109375,-65.4296875
126.3984375,-45.8984375,-45.41015625,-41.015625,-47.8515625
126.40234375,-59.08203125,-40.0390625,-39.0625,-46.38671875
126.40625,-51.26953125,-41.9921875,-42.48046875,-68.84765625
126.41015625,-54.19921875,-45.8984375,-49.8046875,-84.9609375
126.4140625,-50.78125,-42.48046875,-51.7578125,-78.61328125
126.41796875,-44.921875,-44.921875,-44.921875,-66.40625
126.421875,-42.48046875,-49.31640625,-41.9921875,-96.6796875
126.42578125,-48.828125,-48.828125,-46.875,-93.26171875
126.4296875,-98.14453125,-41.9921875,-44.43359375,-46.38671875
126.43359375,-66.40625,-41.50390625,-45.8984375,-33.203125
126.4375,-10.25390625,-39.55078125,-48.828125,-66.40625
126.44140625,-19.53125,-34.1796875,-45.8984375,-75.1953125
126.4453125,-31.73828125,-39.55078125,-47.36328125,-61.5234375
126.44921875,-16.6015625,-40.0390625,-51.7578125,-75.68359375
126.453125,-52.24609375,-33.69140625,-43.45703125,-57.6171875
126.45703125,-73.2421875,-32.71484375,-36.62109375,-51.7578125
126.4609375,-41.015625,-38.57421875,-38.57421875,-40.0390625
126.46484375,-50.78125,-41.50390625,-41.9921875,-58.10546875
126.46875,-24.90234375,-38.57421875,-38.57421875,-73.73046875
126.47265625,-27.34375,-43.45703125,-41.015625,-45.41015625
126.4765625,-79.1015625,-48.828125,-45.41015625,-76.171875
126.48046875,-64.94140625,-44.43359375,-41.015625,-88.8671875
126.484375,-25.87890625,-40.0390625,-39.0625,-68.359375
126.48828125,-43.9453125,-38.57421875,-37.59765625,-62.98828125
126.4921875,-35.15625,-32.71484375,-41.50390625,-70.3125
126.49609375,-20.99609375,-34.1796875,-40.0390625,-72.265625
126.5,-2.9296875,-40.0390625,-34.66796875,-76.66015625
126.50390625,-0.48828125,-36.1328125,-41.50390625,-60.05859375
126.5078125,-18.06640625,-39.0625,-54.6875,-98.6328125
126.51171875,-27.34375,-48.828125,-50.29296875,-98.14453125
126.515625,-53.7109375,-49.8046875,-43.9453125,-66.40625
126.51953125,-45.8984375,-46.875,-47.36328125,-75.68359375
126.5234375,-105.95703125,-49.8046875,-52.734375,-53.22265625
126.52734375,-88.37890625,-49.8046875,-56.640625,-80.078125
126.53125,1.953125,-49.8046875,-50.78125,-92.7734375
126.53515625,-39.55078125,-48.33984375,-53.22265625,-62.5
126.5390625,-67.87109375,-48.828125,-52.734375,-62.01171875
126.54296875,-48.828125,-49.31640625,-52.734375,-97.16796875
126.546875,-29.296875,-51.26953125,-53.7109375,-30.2734375
126.55078125,-56.15234375,-51.7578125,-48.828125,-50.29296875
126.5546875,-35.64453125,-46.38671875,-39.55078125,-140.13671875
126.55859375,-10.7421875,-45.8984375,-38.57421875,-115.234375
126.5625,-53.22265625,-43.9453125,-43.45703125,-78.61328125
126.56640625,-23.4375,-42.96875,-40.0390625,-30.2734375
126.5703125,-24.4140625,-49.8046875,-40.0390625,-49.31640625
126.57421875,-56.640625,-54.6875,-41.015625,-100.5859375
126.578125,-16.6015625,-52.734375,-41.015625,-66.89453125
126.58203125,-46.38671875,-50.29296875,-37.59765625,-28.3203125
126.5859375,-55.17578125,-49.8046875,-34.66796875,-41.9921875
126.58984375,-34.66796875,-41.50390625,-29.296875,-72.265625
126.59375,-80.078125,-35.64453125,-25.87890625,-15.13671875
126.59765625,13.18359375,-43.9453125,-42.96875,22.4609375
126.6015625,48.828125,-58.10546875,-37.109375,-55.6640625
126.60546875,-23.92578125,-63.4765625,-24.4140625,-65.4296875
126.609375,-42.96875,-62.98828125,-25.87890625,-37.109375
126.61328125,-76.171875,-66.89453125,-13.671875,-82.03125
126.6171875,-51.26953125,-64.453125,-20.5078125,-107.91015625
126.62109375,-84.47265625,-57.6171875,-20.5078125,-48.828125
126.625,-180.17578125,-65.4296875,-0.48828125,-104.98046875
126.62890625,-182.6171875,-78.125,-10.7421875,-178.7109375
126.6328125,-213.37890625,-83.0078125,-9.27734375,-104.00390625
126.63671875,-195.80078125,-83.984375,-7.8125,-33.203125
126.640625,-147.4609375,-83.49609375,-12.20703125,-96.6796875
126.64453125,-144.53125,-92.28515625,14.16015625,-149.90234375
126.6484375,-178.7109375,-103.02734375,26.3671875,-72.265625
126.65234375,-157.2265625,-98.6328125,22.4609375,-67.87109375
126.65625,-121.09375,-93.26171875,30.2734375,-87.40234375
126.66015625,-158.69140625,-93.26171875,25.390625,-76.171875
126.6640625,-131.8359375,-92.28515625,11.23046875,-39.55078125
126.66796875,-103.02734375,-99.12109375,7.8125,8.7890625
126.671875,-110.83984375,-107.91015625,16.6015625,-20.01953125
126.67578125,-104.4921875,-117.1875,19.53125,-4.8828125
126.6796875,-84.9609375,-114.74609375,16.6015625,27.34375
126.68359375,-87.40234375,-112.3046875,24.4140625,78.125
126.6875,-40.0390625,-108.88671875,29.78515625,103.515625
126.69140625,30.2734375,-103.515625,13.18359375,77.63671875
126.6953125,-14.16015625,-98.6328125,3.90625,59.5703125
126.69921875,-33.69140625,-89.35546875,6.34765625,52.24609375
126.703125,-10.25390625,-81.54296875,2.44140625,75.68359375
126.70703125,37.59765625,-71.2890625,2.9296875,108.88671875
126.7109375,36.62109375,-72.265625,6.34765625,126.953125
126.71484375,-6.8359375,-73.2421875,-1.46484375,145.01953125
126.71875,23.92578125,-77.1484375,-0.9765625,143.5546875
126.72265625,47.36328125,-78.125,8.7890625,125.0
126.7265625,40.52734375,-75.1953125,2.44140625,115.234375
126.73046875,40.52734375,-82.03125,-7.8125,122.55859375
126.734375,50.29296875,-82.51953125,-5.859375,143.06640625
126.73828125,50.78125,-78.125,-0.48828125,172.8515625
126.7421875,41.9921875,-79.58984375,-3.90625,154.296875
126.74609375,-3.90625,-80.078125,-9.27734375,66.40625
126.75,-24.4140625,-79.58984375,-8.7890625,55.17578125
126.75390625,52.24609375,-77.63671875,-6.34765625,99.609375
126.7578125,68.359375,-75.68359375,-1.46484375,84.9609375
126.76171875,6.34765625,-74.70703125,-3.90625,83.984375
126.765625,26.85546875,-75.68359375,-3.90625,107.421875
126.76953125,71.2890625,-80.56640625,-5.37109375,87.890625
126.7734375,46.38671875,-78.125,-10.7421875,85.44921875
126.77734375,41.015625,-74.70703125,-6.8359375,90.33203125
126.78125,43.45703125,-72.75390625,-5.37109375,66.40625
126.78515625,27.34375,-70.3125,-4.8828125,82.03125
126.7890625,41.015625,-69.3359375,-4.39453125,120.60546875
126.79296875,39.0625,-63.96484375,-11.71875,36.1328125
126.796875,17.08984375,-61.03515625,-13.18359375,3.90625
126.80078125,24.90234375,-59.5703125,-7.8125,13.671875
126.8046875,37.109375,-63.4765625,-3.90625,4.39453125
126.80859375,22.4609375,-73.2421875,-5.859375,42.48046875
126.8125,15.625,-65.4296875,-5.37109375,72.75390625
126.81640625,22.4609375,-55.17578125,-6.8359375,35.64453125
126.8203125,-24.4140625,-58.59375,-13.18359375,-18.06640625
126.82421875,-37.109375,-67.87109375,-8.30078125,-23.4375
126.828125,-4.8828125,-64.453125,-10.7421875,-19.53125
126.83203125,0.9765625,-56.15234375,-10.7421875,-6.34765625
126.8359375,-25.390625,-52.24609375,-12.20703125,9.27734375
126.83984375,-31.25,-53.22265625,-12.6953125,21.484375
126.84375,-19.04296875,-55.6640625,-15.13671875,15.13671875
126.84765625,-40.52734375,-55.17578125,-18.5546875,-24.4140625
126.8515625,-58.59375,-57.12890625,-14.16015625,-26.3671875
126.85546875,10.25390625,-59.08203125,-12.6953125,-31.73828125
126.859375,33.69140625,-59.5703125,-18.5546875,-48.828125
126.86328125,-49.31640625,-60.05859375,-18.06640625,-51.7578125
126.8671875,-55.6640625,-56.640625,-15.13671875,-2.9296875
126.87109375,-37.109375,-59.08203125,-13.671875,-24.90234375
126.875,-60.05859375,-53.7109375,-5.37109375,-19.53125
126.87890625,-26.3671875,-51.7578125,-3.90625,4.8828125
126.8828125,-34.66796875,-54.6875,-6.8359375,-43.9453125
126.88671875,-44.921875,-50.78125,-3.90625,-47.8515625
126.890625,12.20703125,-60.05859375,4.39453125,-23.4375
126.89453125,46.38671875,-58.59375,12.6953125,25.87890625
126.8984375,-6.8359375,-46.875,-6.8359375,0.0
126.90234375,-65.4296875,-52.24609375,-24.4140625,-103.02734375
126.90625,-57.6171875,-55.17578125,-17.08984375,-44.43359375
126.91015625,-49.8046875,-48.33984375,-20.5078125,-18.06640625
126.9140625,-24.90234375,-53.22265625,-28.80859375,-97.65625
126.91796875,-63.4765625,-54.6875,-27.34375,-85.44921875
126.921875,-66.89453125,-43.9453125,-28.80859375,-90.8203125
126.92578125,13.671875,-43.45703125,-26.85546875,-96.6796875
126.9296875,-9.765625,-42.48046875,-27.83203125,-105.46875
126.93359375,-76.171875,-39.0625,-28.3203125,-105.95703125
126.9375,-80.56640625,-43.45703125,-20.01953125,-114.2578125
126.94140625,-62.98828125,-41.50390625,-23.92578125,-118.65234375
126.9453125,-31.73828125,-36.62109375,-27.83203125,-67.3828125
126.94921875,-29.296875,-35.64453125,-15.13671875,-74.21875
126.953125,-55.6640625,-31.73828125,-12.20703125,-100.5859375
126.95703125,-64.94140625,-30.2734375,-12.20703125,-84.9609375
126.9609375,-6.8359375,-32.2265625,-11.23046875,-65.91796875
126.96484375,-14.6484375,-28.80859375,-8.7890625,-21.484375
126.96875,-33.203125,-29.78515625,-7.32421875,-34.1796875
126.97265625,-30.2734375,-38.57421875,-7.8125,-103.515625
126.9765625,3.41796875,-35.15625,1.46484375,-104.4921875
126.98046875,-8.30078125,-32.71484375,4.39453125,-8.7890625
126.984375,-44.921875,-33.203125,-3.90625,-35.15625
126.98828125,-27.34375,-35.15625,-2.9296875,-93.26171875
126.9921875,-22.94921875,-37.59765625,1.953125,-43.9453125
126.99609375,-21.97265625,-36.1328125,-5.37109375,-61.03515625
127.0,-65.4296875,-37.109375,-2.44140625,-57.6171875
127.00390625,-40.0390625,-40.52734375,-0.9765625,-42.48046875
127.0078125,-39.0625,-40.52734375,-1.953125,-52.734375
127.01171875,-42.48046875,-34.1796875,4.8828125,-53.7109375
127.015625,-42.96875,-32.2265625,9.27734375,-80.56640625
127.01953125,-30.76171875,-34.66796875,15.13671875,-81.54296875
127.0234375,-5.37109375,-26.3671875,14.16015625,-64.94140625
127.02734375,-29.78515625,-24.90234375,8.7890625,-50.78125
127.03125,-41.9921875,-32.71484375,8.30078125,-41.9921875
127.03515625,-36.62109375,-35.15625,7.32421875,-40.0390625
127.0390625,-14.16015625,-34.66796875,14.16015625,-39.0625
127.04296875,-15.625,-36.62109375,17.08984375,-43.9453125
127.046875,-4.8828125,-39.0625,14.16015625,-16.6015625
127.05078125,-34.66796875,-35.64453125,15.13671875,-5.37109375
127.0546875,-53.22265625,-32.71484375,13.18359375,-65.91796875
127.05859375,-44.43359375,-39.55078125,9.27734375,-94.23828125
127.0625,-36.1328125,-42.48046875,9.27734375,-77.63671875
127.06640625,-25.87890625,-38.57421875,11.23046875,-58.59375
127.0703125,-35.15625,-43.45703125,12.20703125,-11.71875
127.07421875,-16.11328125,-44.921875,10.25390625,-26.3671875
127.078125,4.8828125,-43.45703125,10.25390625,-49.8046875
127.08203125,-26.85546875,-47.8515625,7.32421875,-32.71484375
127.0859375,-41.015625,-48.828125,3.41796875,-62.01171875
127.08984375,-57.12890625,-45.8984375,-0.9765625,-78.61328125
127.09375,-85.44921875,-48.33984375,2.9296875,-77.1484375
127.09765625,-54.6875,-55.17578125,5.859375,-88.37890625
127.1015625,-24.4140625,-61.03515625,2.9296875,-72.75390625
127.10546875,-69.82421875,-60.546875,-1.953125,-31.73828125
127.109375,-51.26953125,-57.6171875,-5.37109375,-23.92578125
127.11328125,-13.671875,-51.26953125,-13.671875,-62.5
127.1171875,-40.0390625,-46.38671875,-12.6953125,-92.28515625
127.12109375,-39.55078125,-50.29296875,-0.48828125,-72.75390625
127.125,-40.0390625,-50.29296875,-1.953125,-35.64453125
127.12890625,-61.5234375,-50.29296875,-6.8359375,-56.640625
127.1328125,-73.73046875,-50.78125,-2.9296875,-73.73046875
127.13671875,-56.15234375,-52.24609375,2.44140625,-70.80078125
127.140625,-64.453125,-48.828125,1.46484375,-73.73046875
127.14453125,-76.66015625,-40.0390625,-5.37109375,-62.5
127.1484375,-69.3359375,-36.1328125,-4.39453125,-43.9453125
127.15234375,-33.203125,-43.45703125,-5.859375,-44.43359375
127.15625,8.30078125,-41.50390625,-5.37109375,-55.17578125
127.16015625,-5.859375,-39.0625,-4.8828125,-16.11328125
127.1640625,-46.38671875,-47.36328125,-9.765625,-1.46484375
127.16796875,-48.828125,-49.31640625,0.0,-54.19921875
127.171875,-32.2265625,-43.9453125,12.6953125,-90.8203125
127.17578125,-31.25,-36.1328125,9.765625,-49.31640625
127.1796875,-56.15234375,-33.203125,8.7890625,-46.875
127.18359375,-70.3125,-33.203125,6.8359375,-76.66015625
127.1875,-55.17578125,-29.296875,2.9296875,-54.19921875
127.19140625,-38.57421875,-27.83203125,6.34765625,-65.4296875
127.1953125,-45.41015625,-33.69140625,5.859375,-76.66015625
127.19921875,-39.55078125,-33.203125,11.23046875,-21.97265625
127.203125,-8.7890625,-29.296875,14.6484375,-22.94921875
127.20703125,-7.32421875,-34.1796875,8.7890625,-58.59375
127.2109375,-15.13671875,-38.0859375,4.8828125,-39.55078125
127.21484375,-29.78515625,-36.62109375,7.8125,-33.69140625
127.21875,-64.94140625,-34.66796875,6.8359375,-24.90234375
127.22265625,-51.7578125,-33.203125,4.8828125,-60.05859375
127.2265625,-36.1328125,-33.69140625,11.23046875,-53.7109375
127.23046875,-15.625,-35.15625,7.32421875,-17.08984375
127.234375,13.671875,-39.0625,5.37109375,-41.015625
127.23828125,-35.15625,-44.43359375,3.41796875,-70.80078125
127.2421875,-53.22265625,-41.50390625,-0.9765625,-74.21875
127.24609375,-55.17578125,-38.57421875,0.9765625,-63.96484375
127.25,-26.85546875,-46.875,-0.9765625,-44.921875
127.25390625,-43.9453125,-46.875,2.9296875,-27.34375
127.2578125,-56.640625,-44.921875,-3.41796875,-56.15234375
127.26171875,-26.85546875,-41.50390625,-7.32421875,-60.546875
127.265625,-105.46875,-43.45703125,-0.48828125,-54.19921875
127.26953125,-104.00390625,-49.31640625,-4.8828125,-28.3203125
127.2734375,-20.01953125,-44.43359375,-2.44140625,-52.24609375
127.27734375,-25.390625,-39.0625,3.41796875,-96.19140625
127.28125,-41.50390625,-46.875,0.0,-29.78515625
127.28515625,-24.90234375,-51.26953125,-1.953125,-41.015625
127.2890625,-23.4375,-51.7578125,2.9296875,-59.08203125
127.29296875,-39.0625,-51.7578125,-3.41796875,-38.57421875
127.296875,-20.5078125,-44.921875,-13.18359375,-30.76171875
127.30078125,-31.25,-49.31640625,-3.41796875,-18.06640625
127.3046875,-77.1484375,-56.640625,4.39453125,-59.5703125
127.30859375,-109.86328125,-50.29296875,-0.9765625,-79.58984375
127.3125,-89.84375,-48.828125,6.34765625,-74.21875
127.31640625,-63.96484375,-54.19921875,17.08984375,-39.55078125
127.3203125,-78.61328125,-62.98828125,19.04296875,-18.5546875
127.32421875,-92.28515625,-72.265625,12.6953125,-64.453125
127.328125,-75.68359375,-72.265625,8.7890625,-50.29296875
127.33203125,-65.4296875,-74.70703125,17.08984375,-23.4375
127.3359375,-70.3125,-76.66015625,9.765625,-55.17578125
127.33984375,-81.54296875,-74.70703125,4.8828125,-56.15234375
127.34375,-76.66015625,-76.66015625,11.71875,-34.66796875
127.34765625,-87.890625,-75.1953125,17.578125,4.8828125
127.3515625,-62.98828125,-68.84765625,16.6015625,-35.15625
127.35546875,-44.43359375,-63.4765625,11.71875,-56.640625
127.359375,-62.01171875,-63.4765625,9.765625,-36.1328125
127.36328125,-57.12890625,-66.40625,8.7890625,-62.5
127.3671875,-79.1015625,-72.75390625,3.41796875,-50.78125
127.37109375,-62.98828125,-71.2890625,-3.41796875,-15.13671875
127.375,-27.34375,-68.359375,0.48828125,-23.92578125
127.37890625,-33.203125,-65.4296875,6.34765625,0.48828125
127.3828125,-19.04296875,-65.4296875,0.48828125,4.8828125
127.38671875,-9.27734375,-67.3828125,3.41796875,-11.71875
127.390625,-5.37109375,-63.96484375,17.08984375,-1.953125
127.39453125,-35.64453125,-57.6171875,20.5078125,52.24609375
127.3984375,-48.828125,-53.22265625,13.671875,7.32421875
127.40234375,-59.08203125,-48.828125,3.90625,-56.640625
127.40625,-43.9453125,-48.828125,3.90625,-24.90234375
127.41015625,-19.53125,-52.734375,0.0,-15.13671875
127.4140625,-30.76171875,-47.8515625,2.9296875,15.625
127.41796875,-21.97265625,-45.8984375,9.765625,3.41796875
127.421875,-56.640625,-47.8515625,1.953125,-31.25
127.42578125,-59.08203125,-41.015625,1.953125,-18.06640625
127.4296875,-21.97265625,-33.203125,4.8828125,-13.671875
127.43359375,-8.30078125,-33.203125,1.46484375,-15.13671875
127.4375,-6.34765625,-36.62109375,2.44140625,-9.765625
127.44140625,-8.30078125,-41.9921875,2.9296875,2.9296875
127.4453125,-13.18359375,-45.8984375,0.0,-24.90234375
127.44921875,-45.41015625,-46.875,-7.32421875,-34.66796875
127.453125,-37.59765625,-42.96875,-11.71875,-45.41015625
127.45703125,-41.015625,-38.57421875,-7.32421875,-48.33984375
127.4609375,-60.05859375,-38.0859375,-4.39453125,12.20703125
127.46484375,-46.38671875,-44.43359375,-12.6953125,-6.8359375
127.46875,-56.15234375,-43.45703125,-13.671875,-70.80078125
127.47265625,-14.6484375,-38.0859375,-12.6953125,-60.05859375
127.4765625,-4.8828125,-41.50390625,-16.11328125,-25.87890625
127.48046875,-33.69140625,-46.38671875,-15.13671875,-62.01171875
127.484375,-43.45703125,-47.8515625,-16.6015625,-88.8671875
127.48828125,-43.9453125,-43.9453125,-19.53125,-92.7734375
127.4921875,-31.25,-41.9921875,-12.20703125,-74.21875
127.49609375,-16.6015625,-48.33984375,-13.671875,-38.0859375
127.5,-61.5234375,-47.36328125,-16.6015625,-79.1015625
127.50390625,-84.9609375,-43.9453125,-13.18359375,-81.54296875
127.5078125,-41.50390625,-42.48046875,-19.53125,-76.171875
127.51171875,-46.38671875,-41.9921875,-22.94921875,-83.984375
127.515625,-65.4296875,-46.38671875,-22.4609375,-93.26171875
127.51953125,-68.359375,-40.0390625,-13.671875,-109.86328125
127.5234375,-53.7109375,-36.62109375,-14.6484375,-99.609375
127.52734375,-54.6875,-37.109375,-13.671875,-75.1953125
127.53125,-69.82421875,-33.203125,-4.39453125,-78.125
127.53515625,-112.3046875,-39.55078125,-7.8125,-83.0078125
127.5390625,-141.11328125,-48.33984375,-16.11328125,-129.39453125
127.54296875,-130.859375,-56.15234375,-15.625,-168.45703125
127.546875,-109.86328125,-65.4296875,-10.25390625,-145.01953125
127.55078125,-136.23046875,-62.5,-10.7421875,-161.62109375
127.5546875,-223.6328125,-56.15234375,-21.97265625,-154.78515625
127.55859375,-218.26171875,-52.734375,-32.2265625,-194.3359375
127.5625,-200.68359375,-45.41015625,-36.62109375,-272.4609375
127.56640625,-240.234375,-45.41015625,-41.015625,-290.0390625
127.5703125,-272.94921875,-44.43359375,-46.875,-302.24609375
127.57421875,-251.46484375,-37.59765625,-49.31640625,-299.8046875
127.578125,-252.9296875,-29.296875,-50.78125,-313.4765625
127.58203125,-252.9296875,-28.3203125,-52.24609375,-303.7109375
127.5859375,-217.28515625,-22.94921875,-59.5703125,-264.6484375
127.58984375,-232.421875,-14.6484375,-66.40625,-263.18359375
127.59375,-218.26171875,-12.20703125,-61.03515625,-278.3203125
127.59765625,-168.9453125,-12.20703125,-62.5,-215.8203125
127.6015625,-175.78125,-13.18359375,-70.3125,-230.95703125
127.60546875,-169.921875,-16.6015625,-74.21875,-245.1171875
127.609375,-122.0703125,-20.5078125,-73.2421875,-217.7734375
127.61328125,-76.66015625,-15.13671875,-75.68359375,-200.1953125
127.6171875,-94.23828125,-10.7421875,-78.61328125,-169.921875
127.62109375,-97.65625,-13.671875,-79.58984375,-157.2265625
127.625,-78.125,-14.16015625,-76.66015625,-145.99609375
127.62890625,-43.45703125,-12.20703125,-70.80078125,-117.67578125
127.6328125,-44.921875,-8.30078125,-69.82421875,-64.453125
127.63671875,-43.45703125,-11.23046875,-71.2890625,-38.57421875
127.640625,-9.765625,-16.6015625,-66.89453125,-46.875
127.64453125,-7.32421875,-14.6484375,-62.5,-36.1328125
127.6484375,6.34765625,-18.06640625,-65.4296875,-44.921875
127.65234375,64.453125,-18.5546875,-61.03515625,-41.015625
127.65625,54.6875,-20.5078125,-58.10546875,-26.85546875
127.66015625,-13.671875,-25.390625,-50.29296875,-16.6015625
127.6640625,5.37109375,-26.3671875,-41.015625,60.05859375
127.66796875,32.71484375,-27.34375,-48.33984375,14.16015625
127.671875,29.78515625,-27.34375,-52.734375,-51.7578125
127.67578125,10.25390625,-25.87890625,-50.29296875,-23.92578125
127.6796875,-25.87890625,-28.80859375,-52.24609375,-21.484375
127.68359375,46.38671875,-33.203125,-47.8515625,23.4375
127.6875,81.0546875,-30.2734375,-46.875,19.53125
127.69140625,19.04296875,-26.85546875,-48.33984375,-7.8125
127.6953125,-1.953125,-26.85546875,-41.50390625,7.8125
127.69921875,-5.37109375,-28.3203125,-42.96875,20.01953125
127.703125,16.11328125,-31.25,-42.48046875,35.64453125
127.70703125,41.015625,-32.2265625,-40.0390625,-14.16015625
127.7109375,28.80859375,-33.203125,-48.828125,-35.64453125
127.71484375,42.96875,-32.2265625,-50.78125,-27.83203125
127.71875,6.34765625,-32.2265625,-43.9453125,-23.4375
127.72265625,-1.46484375,-40.52734375,-39.0625,9.765625
127.7265625,-0.9765625,-43.9453125,-37.59765625,24.4140625
127.73046875,-14.6484375,-45.8984375,-34.1796875,29.78515625
127.734375,-11.71875,-45.41015625,-32.2265625,17.578125
127.73828125,1.46484375,-44.921875,-36.1328125,-20.99609375
127.7421875,-27.83203125,-46.38671875,-37.59765625,-15.625
127.74609375,-9.27734375,-44.43359375,-29.296875,27.83203125
127.75,23.92578125,-39.55078125,-28.3203125,2.44140625
127.75390625,3.41796875,-38.57421875,-33.203125,-7.32421875
127.7578125,-3.41796875,-44.43359375,-36.1328125,-19.04296875
127.76171875,3.90625,-42.96875,-38.57421875,-22.4609375
127.765625,-11.23046875,-42.96875,-35.15625,55.17578125
127.76953125,-16.11328125,-41.50390625,-33.69140625,31.73828125
127.7734375,33.203125,-37.59765625,-35.64453125,-27.34375
127.77734375,13.18359375,-44.921875,-39.55078125,-14.6484375
127.78125,-30.76171875,-46.875,-42.48046875,-17.08984375
127.78515625,-19.04296875,-45.41015625,-40.52734375,-6.8359375
127.7890625,1.46484375,-44.921875,-39.0625,28.80859375
127.79296875,4.8828125,-43.45703125,-39.0625,-21.484375
127.796875,-22.94921875,-46.38671875,-35.64453125,-28.80859375
127.80078125,-23.92578125,-40.0390625,-34.66796875,-10.25390625
127.8046875,2.9296875,-34.1796875,-36.1328125,-19.53125
127.80859375,-39.55078125,-29.78515625,-37.109375,-21.97265625
127.8125,-77.1484375,-32.2265625,-39.55078125,-15.13671875
127.81640625,-74.21875,-40.0390625,-40.52734375,-22.94921875
127.8203125,-35.64453125,-34.1796875,-40.52734375,-8.7890625
127.82421875,-33.203125,-36.1328125,-39.55078125,13.671875
127.828125,-80.078125,-41.50390625,-36.62109375,-47.8515625
127.83203125,-74.21875,-41.50390625,-29.78515625,-27.83203125
127.8359375,-36.1328125,-35.15625,-24.90234375,34.66796875
127.83984375,-41.015625,-24.4140625,-31.73828125,-13.671875
127.84375,-83.984375,-23.4375,-32.71484375,-74.21875
127.84765625,-60.546875,-25.390625,-30.2734375,-61.03515625
127.8515625,-39.55078125,-32.2265625,-34.1796875,-43.45703125
127.85546875,-88.37890625,-41.015625,-40.0390625,-31.25
127.859375,-47.36328125,-44.43359375,-44.43359375,-12.6953125
127.86328125,-3.41796875,-47.36328125,-40.52734375,-29.296875
127.8671875,-60.546875,-45.41015625,-47.36328125,-62.01171875
127.87109375,-76.171875,-48.828125,-51.7578125,-47.36328125
127.875,-83.984375,-48.828125,-43.9453125,-46.38671875
127.87890625,-62.5,-48.828125,-46.875,-37.109375
127.8828125,-67.3828125,-45.41015625,-50.78125,-42.96875
127.88671875,-64.94140625,-40.52734375,-45.8984375,-45.41015625
