Timestamp,TP9,AF7,AF8,TP10
120.01171875,-149.90234375,-43.9453125,-20.01953125,-132.8125
120.015625,-93.75,-52.24609375,-20.5078125,-143.5546875
120.01953125,-62.98828125,-53.22265625,-16.6015625,-121.09375
120.0234375,-169.921875,-58.10546875,-12.20703125,-104.00390625
120.02734375,-113.28125,-58.59375,-13.671875,-37.59765625
120.03125,-58.10546875,-59.5703125,-11.23046875,-92.7734375
120.03515625,-140.13671875,-62.98828125,-7.32421875,-63.96484375
120.0390625,-131.34765625,-58.59375,-7.32421875,-39.0625
120.04296875,-73.73046875,-62.01171875,-10.25390625,-138.18359375
120.046875,-122.0703125,-66.40625,-9.27734375,-109.375
120.05078125,-149.90234375,-69.3359375,-19.53125,-68.359375
120.0546875,-110.83984375,-74.70703125,-27.34375,-78.61328125
120.05859375,-86.9140625,-66.40625,-25.87890625,-75.68359375
120.0625,-97.16796875,-65.91796875,-18.06640625,-54.19921875
120.06640625,-114.2578125,-70.3125,-19.53125,-49.31640625
120.0703125,-67.3828125,-62.98828125,-20.5078125,-38.57421875
120.07421875,-87.890625,-62.5,-11.71875,12.6953125
120.078125,-90.8203125,-66.89453125,-27.34375,-80.078125
120.08203125,-45.41015625,-69.3359375,-43.9453125,-93.75
120.0859375,-81.54296875,-67.87109375,-42.48046875,-23.92578125
120.08984375,-79.1015625,-60.546875,-29.296875,-29.78515625
120.09375,-34.1796875,-59.08203125,-27.34375,-23.4375
120.09765625,-75.68359375,-65.4296875,-37.59765625,-45.41015625
120.1015625,-84.47265625,-65.4296875,-42.48046875,-12.20703125
120.10546875,-41.50390625,-66.89453125,-42.48046875,12.6953125
120.109375,-20.99609375,-72.265625,-41.50390625,-5.37109375
120.11328125,-32.71484375,-70.80078125,-47.8515625,-45.8984375
120.1171875,-61.5234375,-70.3125,-42.96875,-34.66796875
120.12109375,-11.23046875,-58.10546875,-26.85546875,0.48828125
120.125,-28.3203125,-54.19921875,-34.66796875,-36.62109375
120.12890625,-115.234375,-66.40625,-40.0390625,-45.8984375
120.1328125,-64.453125,-67.3828125,-36.62109375,-81.54296875
120.13671875,-68.359375,-67.87109375,-37.59765625,-17.578125
120.140625,-25.87890625,-69.3359375,-35.15625,-23.4375
120.14453125,1.953125,-64.453125,-31.73828125,-55.6640625
120.1484375,-72.75390625,-56.640625,-29.296875,-47.36328125
120.15234375,-70.80078125,-51.26953125,-29.78515625,-37.59765625
120.15625,6.34765625,-55.17578125,-28.80859375,-10.25390625
120.16015625,1.46484375,-55.17578125,-29.296875,11.23046875
120.1640625,-60.05859375,-58.10546875,-30.2734375,26.85546875
120.16796875,-49.31640625,-59.5703125,-27.34375,-18.5546875
120.171875,-59.5703125,-54.6875,-33.69140625,-52.24609375
120.17578125,-9.765625,-54.19921875,-31.25,-41.9921875
120.1796875,20.5078125,-55.6640625,-25.87890625,-51.26953125
120.18359375,-23.92578125,-55.6640625,-27.34375,-3.41796875
120.1875,20.5078125,-55.17578125,-27.34375,1.953125
120.19140625,-6.8359375,-54.6875,-31.25,-85.44921875
120.1953125,-52.24609375,-52.734375,-29.296875,-47.8515625
120.19921875,-37.59765625,-49.31640625,-27.83203125,-24.90234375
120.203125,-55.17578125,-47.36328125,-30.76171875,-3.90625
120.20703125,-49.31640625,-54.19921875,-32.71484375,6.34765625
120.2109375,-39.0625,-53.22265625,-31.25,-49.31640625
120.21484375,-32.71484375,-50.29296875,-32.71484375,-55.17578125
120.21875,-8.7890625,-46.875,-34.1796875,-52.24609375
120.22265625,-56.15234375,-40.0390625,-34.66796875,-69.3359375
120.2265625,-59.08203125,-40.52734375,-36.62109375,-52.734375
120.23046875,-2.44140625,-41.50390625,-29.78515625,-42.48046875
120.234375,23.92578125,-42.48046875,-20.99609375,-22.4609375
120.23828125,-19.04296875,-40.0390625,-20.99609375,1.953125
120.2421875,-42.48046875,-35.64453125,-24.90234375,-32.2265625
120.24609375,-35.64453125,-31.73828125,-24.4140625,-41.50390625
120.25,-38.57421875,-30.76171875,-20.5078125,-41.015625
120.25390625,-25.390625,-31.73828125,-24.90234375,-40.52734375
120.2578125,-40.52734375,-28.3203125,-26.85546875,12.20703125
120.26171875,-41.015625,-28.80859375,-21.97265625,35.15625
120.265625,-15.625,-30.2734375,-28.3203125,-79.1015625
120.26953125,-41.9921875,-30.76171875,-32.2265625,-101.07421875
120.2734375,-50.29296875,-31.73828125,-30.2734375,-29.296875
120.27734375,4.8828125,-31.25,-34.1796875,-51.7578125
120.28125,-40.0390625,-34.66796875,-31.73828125,-68.359375
120.28515625,-95.703125,-36.1328125,-26.3671875,-5.859375
120.2890625,-43.9453125,-33.69140625,-30.2734375,-22.4609375
120.29296875,-19.04296875,-33.203125,-30.2734375,-56.640625
120.296875,-16.11328125,-37.59765625,-31.73828125,-27.34375
120.30078125,-42.96875,-35.15625,-36.1328125,-32.2265625
120.3046875,-41.015625,-32.2265625,-33.203125,-49.8046875
120.30859375,0.0,-38.57421875,-30.2734375,-46.875
120.3125,-14.6484375,-38.57421875,-37.59765625,-102.05078125
120.31640625,-32.71484375,-33.69140625,-33.69140625,-76.171875
120.3203125,-24.4140625,-32.71484375,-31.25,-32.71484375
120.32421875,-66.89453125,-35.15625,-41.50390625,-57.6171875
120.328125,-65.91796875,-39.0625,-40.52734375,-57.6171875
120.33203125,-34.66796875,-42.48046875,-40.0390625,-39.0625
120.3359375,-59.08203125,-35.15625,-36.62109375,-41.50390625
120.33984375,-78.125,-30.2734375,-35.64453125,-50.29296875
120.34375,-27.83203125,-33.203125,-31.25,-56.15234375
120.34765625,-8.30078125,-28.80859375,-23.4375,-23.92578125
120.3515625,30.2734375,-19.53125,-15.13671875,8.7890625
120.35546875,-6.34765625,-21.484375,-17.578125,-60.546875
120.359375,-69.82421875,-26.85546875,-24.4140625,-111.328125
120.36328125,-52.734375,-25.87890625,-16.11328125,-47.8515625
120.3671875,1.953125,-28.80859375,-12.6953125,9.765625
120.37109375,3.90625,-28.3203125,-14.6484375,29.78515625
120.375,-48.33984375,-18.06640625,-26.3671875,-30.2734375
120.37890625,-45.8984375,-17.08984375,-31.25,-110.3515625
120.3828125,-41.015625,-20.01953125,-32.71484375,-96.6796875
120.38671875,-72.265625,-19.53125,-41.50390625,-41.015625
120.390625,-40.0390625,-17.578125,-45.8984375,-58.59375
120.39453125,-56.640625,-11.23046875,-45.8984375,-93.26171875
120.3984375,-62.01171875,-11.23046875,-52.734375,-139.6484375
120.40234375,-19.53125,-14.16015625,-60.05859375,-76.171875
120.40625,-36.1328125,-12.6953125,-56.640625,-55.6640625
120.41015625,-61.03515625,-4.39453125,-60.05859375,-145.01953125
120.4140625,-23.92578125,0.9765625,-67.3828125,-101.07421875
120.41796875,-18.5546875,1.46484375,-62.01171875,-84.9609375
120.421875,-33.69140625,1.953125,-63.96484375,-110.83984375
120.42578125,-25.87890625,8.30078125,-62.5,-97.16796875
120.4296875,-30.2734375,9.765625,-59.5703125,-105.46875
120.43359375,-17.08984375,9.765625,-64.94140625,-118.65234375
120.4375,11.23046875,8.7890625,-66.89453125,-97.65625
120.44140625,-51.7578125,2.44140625,-63.96484375,-101.07421875
120.4453125,-55.6640625,0.48828125,-54.6875,-119.62890625
120.44921875,-20.99609375,-0.48828125,-52.24609375,-90.33203125
120.453125,27.83203125,-0.48828125,-54.6875,-80.078125
120.45703125,21.97265625,5.859375,-54.19921875,-71.77734375
120.4609375,-71.2890625,7.8125,-56.15234375,-53.22265625
120.46484375,-51.26953125,-2.9296875,-53.7109375,-63.96484375
120.46875,0.48828125,-13.671875,-51.7578125,-22.94921875
120.47265625,33.69140625,-16.11328125,-56.640625,-37.109375
120.4765625,-4.8828125,-8.7890625,-48.828125,-112.79296875
120.48046875,-21.484375,-6.34765625,-36.62109375,-54.6875
120.484375,1.953125,-10.7421875,-36.1328125,-23.4375
120.48828125,32.71484375,-11.71875,-40.0390625,-48.828125
120.4921875,13.18359375,-17.08984375,-38.57421875,-43.45703125
120.49609375,-77.1484375,-22.4609375,-42.48046875,-71.77734375
120.5,-36.1328125,-22.94921875,-47.8515625,-64.94140625
120.50390625,-8.7890625,-24.90234375,-42.96875,-40.0390625
120.5078125,-18.5546875,-23.4375,-40.52734375,-26.3671875
120.51171875,-3.90625,-20.99609375,-43.9453125,-22.4609375
120.515625,-29.296875,-19.04296875,-44.43359375,-47.36328125
120.51953125,-66.89453125,-20.5078125,-43.45703125,-17.08984375
120.5234375,-33.203125,-25.390625,-41.015625,-41.015625
120.52734375,-22.94921875,-23.4375,-40.52734375,-108.88671875
120.53125,-29.78515625,-22.94921875,-38.57421875,-93.75
120.53515625,-7.8125,-26.85546875,-40.0390625,-44.43359375
120.5390625,-50.29296875,-27.34375,-44.43359375,-50.78125
120.54296875,-52.24609375,-29.296875,-43.9453125,-60.546875
120.546875,-19.53125,-28.3203125,-40.52734375,-54.19921875
120.55078125,-61.5234375,-28.80859375,-42.96875,-33.69140625
120.5546875,-81.54296875,-22.4609375,-41.9921875,-124.51171875
120.55859375,-87.40234375,-21.484375,-42.48046875,-153.80859375
120.5625,-79.1015625,-26.3671875,-50.78125,-101.5625
120.56640625,-107.421875,-26.3671875,-52.734375,-113.76953125
120.5703125,-125.48828125,-27.83203125,-46.875,-126.953125
120.57421875,-125.9765625,-30.76171875,-49.8046875,-161.62109375
120.578125,-132.8125,-31.73828125,-49.31640625,-104.4921875
120.58203125,-99.609375,-29.78515625,-43.9453125,-104.4921875
120.5859375,-208.49609375,-27.83203125,-49.31640625,-232.421875
120.58984375,-206.0546875,-27.34375,-50.29296875,-189.94140625
120.59375,-134.27734375,-29.296875,-45.8984375,-172.36328125
120.59765625,-174.31640625,-35.15625,-53.22265625,-202.63671875
120.6015625,-177.24609375,-39.55078125,-56.640625,-190.4296875
120.60546875,-163.57421875,-36.62109375,-47.36328125,-162.59765625
120.609375,-174.8046875,-30.2734375,-51.26953125,-182.6171875
120.61328125,-187.01171875,-24.90234375,-51.26953125,-223.14453125
120.6171875,-184.5703125,-20.99609375,-33.69140625,-200.1953125
120.62109375,-182.6171875,-22.4609375,-25.87890625,-165.52734375
120.625,-176.26953125,-24.4140625,-26.85546875,-192.3828125
120.62890625,-192.87109375,-16.6015625,-34.66796875,-226.5625
120.6328125,-166.50390625,-12.20703125,-40.0390625,-202.1484375
120.63671875,-146.484375,-19.53125,-39.0625,-185.546875
120.640625,-157.71484375,-23.4375,-38.57421875,-192.3828125
120.64453125,-139.16015625,-23.4375,-46.38671875,-184.5703125
120.6484375,-139.16015625,-18.06640625,-50.29296875,-153.3203125
120.65234375,-143.06640625,-16.6015625,-48.33984375,-150.87890625
120.65625,-99.609375,-16.6015625,-50.78125,-127.9296875
120.66015625,-103.515625,-14.16015625,-47.8515625,-112.3046875
120.6640625,-128.90625,-12.6953125,-40.52734375,-90.8203125
120.66796875,-86.9140625,-14.16015625,-32.71484375,-67.3828125
120.671875,-44.43359375,-15.625,-34.66796875,-94.23828125
120.67578125,-47.36328125,-18.5546875,-34.66796875,-69.82421875
120.6796875,-75.68359375,-29.296875,-33.203125,-71.77734375
120.68359375,-53.22265625,-36.1328125,-35.64453125,-62.01171875
120.6875,-36.1328125,-38.0859375,-39.0625,-25.87890625
120.69140625,-53.7109375,-34.66796875,-37.109375,-37.109375
120.6953125,-50.29296875,-32.2265625,-37.59765625,-50.78125
120.69921875,-28.80859375,-30.76171875,-32.71484375,-15.625
120.703125,-24.90234375,-35.15625,-25.87890625,-13.671875
120.70703125,-1.46484375,-35.15625,-29.78515625,-19.04296875
120.7109375,9.765625,-32.71484375,-31.25,18.06640625
120.71484375,3.90625,-26.3671875,-28.3203125,8.30078125
120.71875,5.859375,-23.4375,-28.3203125,14.16015625
120.72265625,16.6015625,-28.80859375,-28.80859375,34.66796875
120.7265625,22.94921875,-25.390625,-27.83203125,15.13671875
120.73046875,9.765625,-26.85546875,-29.78515625,34.1796875
120.734375,9.765625,-29.296875,-24.4140625,81.0546875
120.73828125,43.9453125,-26.3671875,-26.3671875,41.50390625
120.7421875,50.29296875,-26.3671875,-30.76171875,-20.5078125
120.74609375,46.875,-25.87890625,-26.3671875,5.859375
120.75,61.03515625,-25.87890625,-22.4609375,32.71484375
120.75390625,28.80859375,-23.92578125,-24.4140625,58.10546875
120.7578125,9.27734375,-20.01953125,-27.83203125,82.03125
120.76171875,1.46484375,-20.5078125,-23.4375,31.25
120.765625,39.0625,-24.90234375,-26.3671875,28.3203125
120.76953125,49.8046875,-27.83203125,-30.76171875,61.03515625
120.7734375,28.3203125,-34.66796875,-32.2265625,39.0625
120.77734375,1.46484375,-35.15625,-38.57421875,8.30078125
120.78125,4.39453125,-30.2734375,-36.62109375,-13.18359375
120.78515625,40.0390625,-31.25,-29.296875,21.484375
120.7890625,24.90234375,-28.80859375,-34.1796875,61.03515625
120.79296875,29.78515625,-29.296875,-35.15625,45.41015625
120.796875,2.9296875,-38.57421875,-34.66796875,-23.92578125
120.80078125,-15.625,-44.43359375,-31.73828125,-9.27734375
120.8046875,20.5078125,-39.55078125,-31.73828125,49.8046875
120.80859375,-6.8359375,-36.62109375,-38.57421875,3.41796875
120.8125,-10.7421875,-34.66796875,-32.2265625,-31.25
120.81640625,8.7890625,-29.78515625,-30.2734375,5.859375
120.8203125,-15.625,-31.25,-35.15625,5.859375
120.82421875,4.8828125,-31.25,-28.3203125,43.9453125
120.828125,38.57421875,-32.71484375,-24.90234375,46.875
120.83203125,32.2265625,-36.1328125,-31.73828125,8.30078125
120.8359375,-13.671875,-41.50390625,-35.64453125,2.9296875
120.83984375,18.5546875,-34.66796875,-36.62109375,-0.9765625
120.84375,8.30078125,-30.76171875,-33.203125,20.99609375
120.84765625,9.765625,-35.15625,-31.25,12.20703125
120.8515625,12.6953125,-33.203125,-30.2734375,15.625
120.85546875,-8.30078125,-34.1796875,-31.73828125,-20.5078125
120.859375,-4.8828125,-34.66796875,-30.76171875,-6.8359375
120.86328125,-12.6953125,-36.1328125,-32.71484375,20.5078125
120.8671875,-43.45703125,-32.2265625,-32.2265625,-16.11328125
120.87109375,-15.625,-26.3671875,-24.4140625,-19.04296875
120.875,26.3671875,-27.34375,-32.2265625,-14.6484375
120.87890625,16.6015625,-31.25,-34.66796875,6.8359375
120.8828125,15.625,-28.3203125,-34.1796875,26.3671875
120.88671875,-2.44140625,-29.296875,-42.48046875,-11.71875
120.890625,-19.53125,-36.1328125,-42.96875,-8.7890625
120.89453125,-9.765625,-37.109375,-40.0390625,-0.9765625
120.8984375,-6.34765625,-35.15625,-36.1328125,-32.71484375
120.90234375,-6.34765625,-36.1328125,-37.109375,-9.27734375
120.90625,5.859375,-33.203125,-37.59765625,-24.4140625
120.91015625,-38.0859375,-27.34375,-38.0859375,-42.48046875
120.9140625,-37.59765625,-27.83203125,-38.57421875,-13.671875
120.91796875,-15.625,-34.1796875,-36.1328125,-19.04296875
120.921875,-12.20703125,-30.2734375,-39.0625,-19.53125
120.92578125,-10.25390625,-29.78515625,-33.203125,-0.48828125
120.9296875,-88.8671875,-33.203125,-36.62109375,-41.9921875
120.93359375,-32.2265625,-33.203125,-42.48046875,-70.3125
120.9375,16.11328125,-35.15625,-33.69140625,-41.9921875
120.94140625,-29.296875,-40.0390625,-31.25,-6.34765625
120.9453125,-24.4140625,-37.59765625,-36.62109375,-39.0625
120.94921875,-51.7578125,-29.78515625,-37.109375,-24.90234375
120.953125,-52.734375,-25.390625,-32.2265625,24.90234375
120.95703125,-9.27734375,-30.2734375,-27.34375,-67.3828125
120.9609375,-14.6484375,-32.71484375,-30.2734375,-72.265625
120.96484375,-17.08984375,-29.78515625,-33.69140625,-50.29296875
120.96875,-16.6015625,-32.71484375,-31.73828125,-36.1328125
120.97265625,-20.5078125,-34.66796875,-30.2734375,-22.4609375
120.9765625,-29.78515625,-33.69140625,-25.87890625,-18.06640625
120.98046875,-44.43359375,-32.71484375,-25.390625,-26.85546875
120.984375,-31.73828125,-33.203125,-29.296875,-40.0390625
120.98828125,-8.30078125,-37.109375,-24.90234375,31.25
120.9921875,-5.859375,-32.2265625,-21.97265625,-8.30078125
120.99609375,21.484375,-28.80859375,-23.4375,-6.34765625
121.0,-35.15625,-32.2265625,-31.73828125,4.8828125
121.00390625,-61.5234375,-29.78515625,-38.0859375,-67.3828125
121.0078125,-23.4375,-25.87890625,-27.34375,-17.578125
121.01171875,-22.94921875,-21.484375,-20.99609375,-6.34765625
121.015625,-26.85546875,-22.4609375,-25.87890625,-30.2734375
121.01953125,-11.71875,-23.4375,-28.3203125,-38.57421875
121.0234375,-41.50390625,-22.94921875,-28.3203125,-2.44140625
121.02734375,-41.015625,-28.3203125,-29.78515625,-19.04296875
121.03125,-14.16015625,-28.80859375,-30.2734375,-20.99609375
121.03515625,-18.5546875,-21.484375,-22.4609375,-0.48828125
121.0390625,-44.921875,-20.01953125,-13.18359375,-41.50390625
121.04296875,-37.59765625,-23.4375,-16.11328125,-55.17578125
121.046875,-18.06640625,-26.3671875,-17.578125,-14.16015625
121.05078125,-63.4765625,-23.92578125,-17.578125,12.6953125
121.0546875,-21.484375,-26.85546875,-23.4375,-52.734375
121.05859375,8.7890625,-32.2265625,-25.87890625,-13.18359375
121.0625,-66.89453125,-27.34375,-27.34375,2.9296875
121.06640625,-39.0625,-25.87890625,-22.4609375,-38.57421875
121.0703125,-14.16015625,-25.390625,-17.08984375,-29.78515625
121.07421875,-16.11328125,-23.92578125,-14.16015625,6.8359375
121.078125,-15.13671875,-20.5078125,-13.18359375,-24.4140625
121.08203125,-15.13671875,-16.6015625,-16.6015625,-22.94921875
121.0859375,-44.921875,-21.484375,-16.6015625,0.48828125
121.08984375,-35.15625,-22.94921875,-21.97265625,-71.77734375
121.09375,-17.08984375,-23.4375,-26.85546875,-50.29296875
121.09765625,-67.3828125,-27.83203125,-28.80859375,-50.78125
121.1015625,-44.921875,-26.3671875,-29.78515625,-54.6875
121.10546875,-33.69140625,-27.83203125,-31.25,-34.1796875
121.109375,-66.89453125,-26.3671875,-30.76171875,-41.015625
121.11328125,-92.7734375,-28.80859375,-25.87890625,-102.05078125
121.1171875,-80.56640625,-30.76171875,-25.87890625,-140.625
121.12109375,-95.21484375,-26.3671875,-34.1796875,-121.09375
121.125,-112.3046875,-29.78515625,-39.55078125,-69.3359375
121.12890625,-118.1640625,-34.66796875,-36.1328125,-49.31640625
121.1328125,-179.6875,-30.76171875,-33.203125,-148.4375
121.13671875,-182.12890625,-20.5078125,-38.57421875,-198.2421875
121.140625,-164.0625,-17.578125,-35.64453125,-173.33984375
121.14453125,-181.15234375,-27.83203125,-34.66796875,-202.63671875
121.1484375,-159.1796875,-31.25,-40.52734375,-202.1484375
121.15234375,-180.17578125,-27.83203125,-42.96875,-196.77734375
121.15625,-244.62890625,-35.15625,-44.43359375,-238.28125
121.16015625,-221.19140625,-45.8984375,-41.015625,-217.28515625
121.1640625,-236.328125,-46.38671875,-43.45703125,-178.22265625
121.16796875,-203.61328125,-41.9921875,-39.0625,-186.5234375
121.171875,-163.0859375,-45.8984375,-35.64453125,-198.73046875
121.17578125,-177.734375,-47.8515625,-37.109375,-186.5234375
121.1796875,-168.9453125,-44.921875,-31.73828125,-181.15234375
121.18359375,-149.4140625,-42.48046875,-29.296875,-175.78125
121.1875,-129.8828125,-39.55078125,-32.2265625,-158.69140625
121.19140625,-106.4453125,-38.57421875,-35.64453125,-92.7734375
121.1953125,-106.4453125,-42.96875,-34.66796875,-67.3828125
121.19921875,-107.421875,-38.0859375,-33.69140625,-100.5859375
121.203125,-84.9609375,-33.69140625,-29.296875,-78.61328125
121.20703125,-75.1953125,-41.015625,-29.296875,-60.546875
121.2109375,-93.75,-39.0625,-34.66796875,-38.0859375
121.21484375,-80.078125,-36.62109375,-41.015625,-78.61328125
121.21875,-41.9921875,-44.43359375,-37.109375,-20.5078125
121.22265625,-22.94921875,-41.015625,-28.80859375,-8.30078125
121.2265625,-19.04296875,-32.2265625,-32.71484375,-92.7734375
121.23046875,-9.765625,-31.25,-36.62109375,-47.8515625
121.234375,19.53125,-32.71484375,-30.76171875,5.859375
121.23828125,19.04296875,-35.64453125,-28.3203125,-17.578125
121.2421875,-7.8125,-35.15625,-32.71484375,8.30078125
121.24609375,-13.671875,-31.25,-27.34375,56.15234375
121.25,16.11328125,-27.83203125,-25.390625,-5.37109375
121.25390625,25.87890625,-29.296875,-31.25,-9.27734375
121.2578125,7.8125,-37.109375,-30.76171875,-14.16015625
121.26171875,-25.87890625,-37.59765625,-40.0390625,-26.3671875
121.265625,21.97265625,-37.59765625,-45.41015625,16.6015625
121.26953125,67.87109375,-38.57421875,-44.921875,-37.109375
121.2734375,-50.78125,-38.0859375,-48.33984375,-74.70703125
121.27734375,-41.015625,-41.9921875,-44.921875,-13.18359375
121.28125,6.34765625,-39.55078125,-41.50390625,-1.953125
121.28515625,-4.39453125,-33.69140625,-37.59765625,8.30078125
121.2890625,-11.71875,-30.2734375,-32.71484375,5.859375
121.29296875,11.71875,-29.78515625,-32.2265625,6.34765625
121.296875,14.16015625,-27.83203125,-32.2265625,9.765625
121.30078125,19.04296875,-21.97265625,-31.25,23.92578125
121.3046875,22.4609375,-21.97265625,-33.203125,37.59765625
121.30859375,11.23046875,-23.4375,-35.15625,32.71484375
121.3125,1.46484375,-22.4609375,-34.1796875,52.24609375
121.31640625,-1.46484375,-21.484375,-37.59765625,-4.8828125
121.3203125,25.87890625,-20.99609375,-34.1796875,-7.32421875
121.32421875,45.8984375,-22.94921875,-30.2734375,24.90234375
121.328125,33.203125,-20.5078125,-37.109375,34.66796875
121.33203125,65.4296875,-19.04296875,-34.66796875,23.92578125
121.3359375,14.6484375,-23.4375,-27.34375,25.390625
121.33984375,-22.94921875,-26.85546875,-31.25,27.34375
121.34375,6.34765625,-28.3203125,-36.62109375,2.44140625
121.34765625,-15.13671875,-25.87890625,-33.69140625,-7.32421875
121.3515625,-17.578125,-22.94921875,-30.76171875,1.953125
121.35546875,22.4609375,-20.99609375,-24.90234375,17.578125
121.359375,27.83203125,-24.90234375,-22.94921875,-13.671875
121.36328125,0.48828125,-25.390625,-24.4140625,10.7421875
121.3671875,36.1328125,-19.53125,-22.94921875,20.01953125
121.37109375,29.296875,-19.04296875,-24.90234375,14.16015625
121.375,-25.390625,-21.484375,-23.4375,8.7890625
121.37890625,18.06640625,-24.4140625,-23.92578125,11.23046875
121.3828125,36.62109375,-29.78515625,-22.4609375,59.08203125
121.38671875,-3.41796875,-34.66796875,-22.4609375,33.203125
121.390625,-11.71875,-32.71484375,-25.87890625,4.8828125
121.39453125,-13.671875,-28.80859375,-26.85546875,6.8359375
121.3984375,14.16015625,-22.94921875,-24.90234375,-8.30078125
121.40234375,-21.97265625,-24.4140625,-25.390625,53.7109375
121.40625,0.9765625,-29.296875,-29.296875,35.15625
121.41015625,53.22265625,-36.1328125,-31.25,-19.04296875
121.4140625,-32.2265625,-34.1796875,-33.69140625,-51.26953125
121.41796875,-56.15234375,-31.73828125,-35.15625,-12.20703125
121.421875,3.90625,-34.66796875,-31.25,16.11328125
121.42578125,5.37109375,-34.1796875,-34.1796875,-45.8984375
121.4296875,-37.59765625,-33.203125,-36.62109375,11.23046875
121.43359375,-34.66796875,-36.1328125,-35.64453125,3.41796875
121.4375,-37.59765625,-36.62109375,-38.57421875,-52.24609375
121.44140625,13.671875,-34.66796875,-36.62109375,5.37109375
121.4453125,8.30078125,-36.1328125,-40.52734375,-18.5546875
121.44921875,-46.38671875,-34.66796875,-35.64453125,-66.40625
121.453125,-26.85546875,-35.15625,-32.71484375,2.9296875
121.45703125,-16.6015625,-38.57421875,-34.1796875,-5.859375
121.4609375,-5.37109375,-30.2734375,-38.57421875,-33.203125
121.46484375,-18.06640625,-29.78515625,-39.55078125,-9.765625
121.46875,-28.3203125,-33.203125,-27.83203125,-56.640625
121.47265625,-14.6484375,-25.87890625,-27.83203125,-34.66796875
121.4765625,-14.6484375,-25.390625,-31.25,-19.53125
121.48046875,9.765625,-25.87890625,-26.85546875,-43.45703125
121.484375,8.7890625,-28.3203125,-27.83203125,-1.46484375
121.48828125,-22.4609375,-22.94921875,-22.94921875,-3.41796875
121.4921875,-0.9765625,-16.11328125,-21.97265625,-42.96875
121.49609375,-16.11328125,-21.97265625,-28.3203125,-3.90625
121.5,18.06640625,-26.3671875,-25.87890625,28.3203125
121.50390625,-30.76171875,-19.53125,-21.484375,15.13671875
121.5078125,-19.53125,-16.11328125,-16.6015625,1.46484375
121.51171875,7.32421875,-19.04296875,-17.08984375,-63.4765625
121.515625,-28.80859375,-22.4609375,-20.5078125,-52.734375
121.51953125,-23.4375,-26.3671875,-22.94921875,-20.99609375
121.5234375,3.41796875,-25.87890625,-21.97265625,-29.78515625
121.52734375,-9.27734375,-30.2734375,-19.04296875,-28.80859375
121.53125,-41.015625,-30.2734375,-25.390625,3.41796875
121.53515625,-26.85546875,-30.76171875,-24.4140625,45.8984375
121.5390625,-47.8515625,-33.203125,-26.3671875,-10.7421875
121.54296875,-47.8515625,-25.390625,-23.4375,-57.6171875
121.546875,-23.4375,-25.87890625,-16.6015625,-6.34765625
121.55078125,-12.20703125,-29.296875,-24.90234375,-27.83203125
121.5546875,10.7421875,-21.484375,-28.80859375,-45.41015625
121.55859375,-15.625,-19.04296875,-24.90234375,28.3203125
121.5625,-70.3125,-28.3203125,-26.3671875,-26.3671875
121.56640625,-6.8359375,-29.296875,-29.296875,-54.6875
121.5703125,20.01953125,-26.85546875,-31.25,-41.015625
121.57421875,-42.48046875,-33.203125,-35.15625,-36.62109375
121.578125,-41.9921875,-33.203125,-35.15625,-24.4140625
121.58203125,-1.953125,-33.203125,-33.69140625,5.859375
121.5859375,-5.37109375,-34.66796875,-32.71484375,46.875
121.58984375,-25.390625,-31.25,-29.78515625,15.625
121.59375,-21.97265625,-33.203125,-30.2734375,-58.59375
121.59765625,-41.015625,-35.64453125,-32.71484375,-72.265625
121.6015625,4.8828125,-35.15625,-38.0859375,-70.80078125
121.60546875,7.8125,-38.0859375,-38.0859375,-65.91796875
121.609375,-65.91796875,-38.0859375,-38.57421875,-22.4609375
121.61328125,-62.5,-42.48046875,-43.45703125,-12.6953125
121.6171875,-27.34375,-43.45703125,-42.48046875,-12.6953125
121.62109375,-25.390625,-42.48046875,-42.48046875,-12.20703125
121.625,-28.3203125,-41.9921875,-45.8984375,-55.17578125
121.62890625,-23.92578125,-37.59765625,-48.828125,-63.96484375
121.6328125,-44.921875,-33.69140625,-43.9453125,-80.078125
121.63671875,-40.0390625,-31.25,-36.1328125,-15.625
121.640625,-43.45703125,-34.1796875,-39.0625,-11.71875
121.64453125,-53.7109375,-41.50390625,-39.55078125,-10.7421875
121.6484375,-23.92578125,-40.0390625,-43.9453125,4.39453125
121.65234375,-9.27734375,-40.0390625,-48.828125,-18.06640625
121.65625,-9.765625,-43.45703125,-41.9921875,-70.3125
121.66015625,-52.24609375,-42.48046875,-45.8984375,-56.15234375
121.6640625,-57.12890625,-41.9921875,-48.33984375,-31.25
121.66796875,-26.3671875,-40.52734375,-42.48046875,-49.8046875
121.671875,-25.87890625,-41.9921875,-41.9921875,-21.97265625
121.67578125,28.3203125,-39.0625,-41.50390625,-32.71484375
121.6796875,10.7421875,-31.73828125,-44.43359375,-32.71484375
121.68359375,-59.08203125,-35.15625,-49.31640625,-21.97265625
121.6875,-73.73046875,-39.0625,-49.31640625,-27.83203125
121.69140625,-23.4375,-38.57421875,-46.38671875,0.0
121.6953125,7.8125,-42.96875,-45.41015625,-24.4140625
121.69921875,-90.8203125,-44.43359375,-50.29296875,-110.83984375
121.703125,-20.99609375,-41.015625,-48.828125,-62.98828125
121.70703125,23.92578125,-40.52734375,-44.921875,-35.15625
121.7109375,-77.1484375,-37.59765625,-51.26953125,-20.99609375
121.71484375,-26.3671875,-39.55078125,-46.875,51.7578125
121.71875,-18.5546875,-48.828125,-38.0859375,-5.37109375
121.72265625,-61.5234375,-50.78125,-38.0859375,-82.51953125
121.7265625,-62.01171875,-48.33984375,-40.0390625,-101.5625
121.73046875,-129.39453125,-50.78125,-32.71484375,-144.53125
121.734375,-166.9921875,-52.734375,-25.87890625,-125.9765625
121.73828125,-106.93359375,-52.24609375,-22.94921875,-64.453125
121.7421875,-113.76953125,-55.6640625,-20.01953125,-59.5703125
121.74609375,-118.1640625,-44.921875,-13.18359375,-45.41015625
121.75,-94.23828125,-36.62109375,-16.6015625,-61.03515625
121.75390625,-161.62109375,-42.96875,-34.1796875,-173.828125
121.7578125,-151.3671875,-56.15234375,-34.1796875,-174.31640625
121.76171875,-142.578125,-58.59375,-25.87890625,-104.98046875
121.765625,-124.0234375,-43.45703125,-26.85546875,-91.796875
121.76953125,-82.03125,-33.203125,-20.01953125,-58.10546875
121.7734375,-101.07421875,-30.76171875,-7.8125,-0.48828125
121.77734375,-126.46484375,-34.1796875,-15.13671875,-36.62109375
121.78125,-59.5703125,-39.0625,-24.4140625,-106.4453125
121.78515625,-26.85546875,-42.96875,-21.97265625,-62.5
121.7890625,-70.80078125,-39.0625,-30.76171875,-29.296875
121.79296875,-65.91796875,-38.57421875,-34.66796875,-42.48046875
121.796875,-36.1328125,-43.9453125,-34.1796875,-2.9296875
121.80078125,-65.91796875,-48.33984375,-43.45703125,-20.5078125
121.8046875,-122.55859375,-42.96875,-34.1796875,-11.71875
121.80859375,-45.8984375,-35.64453125,-28.3203125,-22.94921875
121.8125,77.63671875,-42.96875,-37.109375,-31.25
121.81640625,-43.45703125,-41.50390625,-31.25,2.9296875
121.8203125,-99.12109375,-28.3203125,-14.6484375,-7.8125
121.82421875,-12.6953125,-14.6484375,-21.484375,23.92578125
121.828125,-9.765625,-11.23046875,-36.62109375,-6.8359375
121.83203125,2.9296875,-11.23046875,-13.18359375,-11.71875
121.8359375,-54.19921875,-5.37109375,10.25390625,18.5546875
121.83984375,-40.0390625,9.27734375,19.04296875,41.50390625
121.84375,19.04296875,18.5546875,16.11328125,41.9921875
121.84765625,10.7421875,11.71875,2.9296875,26.3671875
121.8515625,-3.41796875,1.953125,-6.8359375,4.8828125
121.85546875,6.8359375,0.48828125,-11.71875,11.23046875
121.859375,-14.6484375,6.8359375,-5.859375,67.3828125
121.86328125,-13.671875,6.8359375,-3.41796875,41.015625
121.8671875,27.34375,8.30078125,-9.27734375,5.37109375
121.87109375,41.9921875,11.23046875,-5.859375,59.08203125
121.875,59.5703125,12.6953125,15.13671875,113.76953125
121.87890625,43.45703125,27.83203125,8.7890625,141.6015625
121.8828125,-9.765625,36.1328125,-0.9765625,62.98828125
121.88671875,4.8828125,34.66796875,7.8125,28.3203125
121.890625,53.22265625,43.9453125,12.20703125,51.26953125
121.89453125,52.24609375,47.8515625,12.20703125,30.2734375
121.8984375,13.18359375,52.24609375,15.625,57.6171875
121.90234375,30.76171875,55.17578125,17.578125,92.7734375
121.90625,78.125,62.5,23.92578125,68.84765625
121.91015625,86.42578125,62.01171875,31.25,24.90234375
121.9140625,48.828125,54.19921875,25.87890625,-6.34765625
121.91796875,-10.25390625,62.5,25.87890625,77.63671875
121.921875,44.921875,68.359375,27.83203125,123.53515625
121.92578125,69.3359375,63.96484375,17.08984375,19.04296875
121.9296875,63.96484375,62.98828125,5.859375,51.26953125
121.93359375,55.17578125,65.91796875,8.7890625,86.42578125
121.9375,10.7421875,66.89453125,18.06640625,-7.8125
121.94140625,40.0390625,60.546875,12.20703125,-13.18359375
121.9453125,21.484375,53.7109375,2.9296875,29.78515625
121.94921875,34.1796875,56.640625,8.30078125,39.55078125
121.953125,-0.9765625,55.6640625,3.41796875,7.32421875
121.95703125,-14.6484375,46.875,-4.8828125,-0.9765625
121.9609375,83.49609375,45.41015625,2.44140625,-15.13671875
121.96484375,65.91796875,53.22265625,6.34765625,-15.13671875
121.96875,-29.78515625,57.12890625,7.32421875,21.484375
121.97265625,29.296875,57.6171875,12.6953125,20.5078125
121.9765625,8.7890625,65.91796875,13.671875,41.9921875
121.98046875,-15.13671875,63.96484375,17.578125,26.85546875
121.984375,34.66796875,53.22265625,15.625,-29.296875
121.98828125,22.4609375,48.828125,7.8125,-47.8515625
121.9921875,6.34765625,48.33984375,2.9296875,-44.921875
121.99609375,26.3671875,48.828125,8.7890625,-13.671875
122.0,20.99609375,49.31640625,16.6015625,-34.66796875
122.00390625,27.34375,49.31640625,19.04296875,-14.16015625
122.0078125,-0.9765625,56.640625,24.4140625,-29.296875
122.01171875,-16.11328125,58.10546875,20.5078125,-46.875
122.015625,20.99609375,47.8515625,12.6953125,-34.66796875
122.01953125,1.953125,42.96875,7.8125,-65.91796875
122.0234375,-41.015625,42.48046875,7.32421875,-52.734375
122.02734375,-47.8515625,47.8515625,7.32421875,-77.63671875
122.03125,29.296875,52.734375,5.859375,-58.59375
122.03515625,-36.62109375,50.29296875,9.765625,-33.203125
122.0390625,-101.5625,50.29296875,17.578125,-38.57421875
122.04296875,-64.453125,50.29296875,11.71875,-104.4921875
122.046875,-77.1484375,46.38671875,0.0,-143.5546875
122.05078125,-110.83984375,41.9921875,-2.9296875,-86.42578125
122.0546875,-104.4921875,40.52734375,1.46484375,-42.96875
122.05859375,-83.0078125,35.64453125,-4.8828125,-148.92578125
122.0625,-96.6796875,35.64453125,-16.6015625,-213.37890625
122.06640625,-142.578125,38.57421875,-19.04296875,-192.87109375
122.0703125,-140.13671875,36.1328125,-15.13671875,-139.16015625
122.07421875,-117.67578125,31.25,-11.23046875,-113.76953125
122.078125,-182.6171875,19.04296875,-20.5078125,-156.25
122.08203125,-198.2421875,17.578125,-24.4140625,-195.3125
122.0859375,-153.80859375,30.2734375,-20.5078125,-113.28125
122.08984375,-128.41796875,33.203125,-20.5078125,-117.67578125
122.09375,-188.96484375,28.80859375,-4.8828125,-265.625
122.09765625,-187.01171875,26.85546875,5.859375,-281.25
122.1015625,-172.8515625,23.4375,6.34765625,-255.859375
122.10546875,-229.00390625,10.7421875,-1.46484375,-227.5390625
122.109375,-211.9140625,-5.859375,-2.9296875,-156.73828125
122.11328125,-191.89453125,-10.25390625,-3.41796875,-221.19140625
122.1171875,-237.3046875,-8.30078125,-0.48828125,-255.859375
122.12109375,-248.53515625,-10.7421875,9.765625,-201.66015625
122.125,-186.03515625,-9.27734375,17.08984375,-202.1484375
122.12890625,-184.08203125,-4.39453125,25.390625,-174.31640625
122.1328125,-120.60546875,-3.41796875,26.85546875,-201.66015625
122.13671875,-113.28125,-12.6953125,27.83203125,-172.36328125
122.140625,-175.78125,-14.6484375,30.2734375,-82.51953125
122.14453125,-148.92578125,-11.71875,27.83203125,-50.29296875
122.1484375,-101.07421875,-15.625,33.203125,-96.6796875
122.15234375,-144.04296875,-26.85546875,26.3671875,-135.25390625
122.15625,-160.64453125,-32.2265625,13.18359375,-109.375
122.16015625,-85.44921875,-32.2265625,22.4609375,-105.46875
122.1640625,-23.92578125,-34.1796875,24.90234375,-68.84765625
122.16796875,-35.64453125,-35.15625,18.06640625,-19.04296875
122.171875,-127.44140625,-37.59765625,20.5078125,-9.765625
122.17578125,-141.11328125,-37.59765625,18.06640625,-48.33984375
122.1796875,-95.21484375,-40.0390625,17.578125,-13.18359375
122.18359375,-78.61328125,-45.8984375,13.671875,39.0625
122.1875,-65.4296875,-52.734375,7.8125,80.56640625
122.19140625,-93.75,-47.36328125,12.6953125,25.390625
122.1953125,-113.28125,-39.55078125,11.71875,41.015625
122.19921875,-102.5390625,-41.50390625,2.9296875,104.98046875
122.203125,-64.453125,-45.8984375,-0.9765625,53.7109375
122.20703125,-59.5703125,-43.45703125,8.30078125,2.9296875
122.2109375,-29.78515625,-37.59765625,-3.41796875,0.9765625
122.21484375,-14.6484375,-37.109375,-8.30078125,85.44921875
122.21875,-75.1953125,-29.78515625,0.0,70.80078125
122.22265625,-56.640625,-29.78515625,-9.27734375,34.1796875
122.2265625,-25.390625,-34.66796875,-16.11328125,43.9453125
122.23046875,-80.56640625,-30.2734375,-10.7421875,63.96484375
122.234375,-63.96484375,-25.87890625,-10.7421875,66.40625
122.23828125,-25.390625,-25.87890625,-16.6015625,32.71484375
122.2421875,-34.1796875,-28.3203125,-13.671875,84.47265625
122.24609375,-35.64453125,-22.94921875,-10.7421875,9.765625
122.25,-33.203125,-20.99609375,-16.6015625,43.45703125
122.25390625,-36.62109375,-21.97265625,-19.04296875,72.265625
122.2578125,-48.828125,-18.06640625,-12.6953125,3.90625
122.26171875,-64.94140625,-16.6015625,-9.27734375,30.76171875
122.265625,-12.6953125,-20.01953125,-12.6953125,25.87890625
122.26953125,38.0859375,-21.484375,-16.6015625,29.78515625
122.2734375,-17.578125,-16.6015625,-22.94921875,12.6953125
122.27734375,-58.10546875,-14.16015625,-25.390625,71.77734375
122.28125,-33.69140625,-17.08984375,-21.484375,47.8515625
122.28515625,-11.71875,-22.4609375,-23.92578125,19.53125
122.2890625,25.87890625,-20.5078125,-23.92578125,99.12109375
122.29296875,43.45703125,-12.6953125,-27.83203125,66.40625
122.296875,8.30078125,-9.27734375,-28.80859375,-16.11328125
122.30078125,19.04296875,-3.41796875,-15.13671875,38.57421875
122.3046875,62.01171875,-4.8828125,-7.8125,95.703125
122.30859375,2.9296875,-7.8125,-8.7890625,37.109375
122.3125,-3.41796875,-0.48828125,-8.7890625,6.8359375
122.31640625,3.90625,3.41796875,-0.9765625,17.578125
122.3203125,43.45703125,0.9765625,0.48828125,62.01171875
122.32421875,32.71484375,-0.48828125,-12.6953125,71.2890625
122.328125,-19.04296875,1.46484375,-15.625,-7.8125
122.33203125,66.40625,10.25390625,-2.44140625,91.30859375
122.3359375,41.9921875,11.71875,-2.44140625,130.859375
122.33984375,-6.34765625,0.48828125,-0.9765625,12.6953125
122.34375,-22.4609375,0.48828125,1.953125,21.484375
122.34765625,-36.1328125,-0.48828125,-0.48828125,57.12890625
122.3515625,0.0,-7.32421875,5.859375,77.1484375
122.35546875,34.1796875,-7.32421875,11.71875,96.6796875
122.359375,5.859375,-3.90625,10.7421875,47.36328125
122.36328125,-37.109375,-10.7421875,13.18359375,-2.44140625
122.3671875,9.765625,-18.06640625,18.06640625,65.91796875
122.37109375,-8.30078125,-23.92578125,14.6484375,58.10546875
122.375,-33.203125,-23.4375,14.6484375,18.5546875
122.37890625,-42.48046875,-16.11328125,17.578125,53.7109375
122.3828125,-17.08984375,-20.5078125,22.94921875,54.6875
122.38671875,14.6484375,-23.92578125,16.6015625,109.375
122.390625,16.6015625,-19.53125,19.53125,119.62890625
122.39453125,74.21875,-20.5078125,33.203125,117.1875
122.3984375,28.80859375,-25.87890625,31.73828125,96.19140625
122.40234375,-48.33984375,-32.2265625,24.4140625,39.0625
122.40625,-14.6484375,-32.71484375,18.5546875,78.125
122.41015625,9.27734375,-25.390625,13.18359375,117.67578125
122.4140625,-23.92578125,-26.3671875,12.20703125,161.1328125
122.41796875,23.92578125,-26.85546875,17.08984375,48.828125
122.421875,45.8984375,-26.3671875,20.99609375,39.55078125
122.42578125,-5.37109375,-27.83203125,15.13671875,121.09375
122.4296875,33.69140625,-26.3671875,12.20703125,55.6640625
122.43359375,0.0,-25.390625,11.71875,62.98828125
122.4375,-9.27734375,-22.94921875,1.953125,72.265625
122.44140625,9.27734375,-26.3671875,-7.8125,21.97265625
122.4453125,34.1796875,-28.80859375,-13.18359375,107.91015625
122.44921875,12.20703125,-28.3203125,-10.7421875,179.19921875
122.453125,-25.87890625,-26.85546875,-4.8828125,60.546875
122.45703125,4.39453125,-23.92578125,-6.34765625,-17.578125
122.4609375,17.578125,-20.99609375,-7.8125,45.8984375
122.46484375,-6.34765625,-23.4375,-6.8359375,62.01171875
122.46875,7.8125,-23.4375,-5.37109375,48.828125
122.47265625,11.23046875,-17.578125,-9.27734375,83.49609375
122.4765625,-12.20703125,-19.04296875,-13.18359375,32.2265625
122.48046875,-1.46484375,-18.06640625,-10.25390625,-14.16015625
122.484375,-12.20703125,-18.06640625,-11.23046875,41.50390625
122.48828125,-10.25390625,-15.13671875,-17.578125,19.53125
122.4921875,-43.9453125,-17.08984375,-23.92578125,-13.18359375
122.49609375,-20.5078125,-19.04296875,-21.97265625,31.25
122.5,13.18359375,-17.578125,-16.6015625,-24.90234375
122.50390625,-34.66796875,-18.06640625,-20.99609375,-34.1796875
122.5078125,-30.76171875,-15.13671875,-25.390625,22.4609375
122.51171875,34.1796875,-11.71875,-23.92578125,18.06640625
122.515625,1.953125,-10.7421875,-23.4375,-61.03515625
122.51953125,-41.015625,-8.7890625,-18.5546875,-24.4140625
122.5234375,1.46484375,-8.30078125,-15.13671875,20.5078125
122.52734375,-23.4375,-8.7890625,-15.13671875,-5.859375
122.53125,-36.1328125,-14.16015625,-19.53125,-14.6484375
122.53515625,1.953125,-20.5078125,-23.4375,-23.92578125
122.5390625,-25.87890625,-25.87890625,-22.4609375,-26.85546875
122.54296875,-14.6484375,-23.4375,-21.97265625,-3.41796875
122.546875,-15.625,-12.6953125,-20.99609375,-19.04296875
122.55078125,-47.8515625,-9.27734375,-20.99609375,-41.50390625
122.5546875,-47.36328125,-6.34765625,-21.97265625,-47.8515625
122.55859375,-0.48828125,-11.71875,-17.578125,-34.1796875
122.5625,-5.37109375,-16.11328125,-10.7421875,8.30078125
122.56640625,-74.70703125,-13.18359375,-10.25390625,-20.5078125
122.5703125,-79.1015625,-13.671875,-15.625,-46.38671875
122.57421875,-77.1484375,-17.578125,-25.390625,-68.359375
122.578125,-46.875,-21.484375,-24.4140625,-41.015625
122.58203125,-17.08984375,-25.390625,-20.01953125,-46.38671875
122.5859375,-36.1328125,-20.01953125,-22.4609375,-55.6640625
122.58984375,-20.01953125,-16.11328125,-26.3671875,-47.8515625
122.59375,-38.57421875,-18.06640625,-22.4609375,-67.87109375
122.59765625,-27.34375,-11.23046875,-19.53125,-55.6640625
122.6015625,-22.94921875,-11.23046875,-24.4140625,-36.62109375
122.60546875,-66.40625,-16.11328125,-30.76171875,-3.41796875
122.609375,-77.63671875,-12.6953125,-27.83203125,-86.42578125
122.61328125,-67.87109375,-11.71875,-19.53125,-91.796875
122.6171875,-38.0859375,-12.6953125,-12.6953125,-21.97265625
122.62109375,-37.59765625,-16.11328125,-10.25390625,-31.25
122.625,-60.05859375,-20.5078125,-18.5546875,-41.9921875
122.62890625,-55.6640625,-26.3671875,-26.3671875,-6.34765625
122.6328125,-58.59375,-22.4609375,-21.97265625,-53.22265625
122.63671875,-41.9921875,-9.27734375,-10.7421875,-81.0546875
122.640625,-71.2890625,-9.765625,-16.6015625,-65.91796875
122.64453125,-105.46875,-9.27734375,-13.671875,-88.8671875
122.6484375,-49.31640625,-4.39453125,-6.34765625,-89.84375
122.65234375,-72.265625,-9.765625,-17.08984375,-34.1796875
122.65625,-78.61328125,-16.6015625,-22.94921875,-11.71875
122.66015625,-32.71484375,-18.5546875,-20.99609375,-67.3828125
122.6640625,-43.45703125,-14.16015625,-18.5546875,-14.6484375
122.66796875,-7.8125,-10.25390625,-18.5546875,20.01953125
122.671875,-38.57421875,-16.6015625,-24.4140625,-67.87109375
122.67578125,-109.375,-20.5078125,-24.4140625,-118.65234375
122.6796875,-90.33203125,-19.04296875,-30.2734375,-105.95703125
122.68359375,-60.546875,-21.484375,-31.25,-66.89453125
122.6875,-61.03515625,-29.78515625,-19.53125,15.625
122.69140625,-81.54296875,-23.4375,-19.53125,81.0546875
122.6953125,-84.47265625,-17.578125,-24.4140625,-26.85546875
122.69921875,-50.78125,-20.01953125,-24.4140625,-88.8671875
122.703125,-65.91796875,-22.94921875,-18.06640625,-44.43359375
122.70703125,-43.45703125,-22.4609375,-13.671875,-42.96875
122.7109375,-48.33984375,-22.4609375,-9.765625,-50.78125
122.71484375,-73.2421875,-22.94921875,-7.8125,-40.0390625
122.71875,-44.921875,-17.08984375,-12.20703125,-31.25
122.72265625,-59.08203125,-9.765625,-5.37109375,-29.296875
122.7265625,-21.484375,-10.7421875,-14.6484375,-40.52734375
122.73046875,-59.5703125,-15.625,-17.578125,5.859375
122.734375,-114.74609375,-18.5546875,-11.71875,-7.8125
122.73828125,-79.58984375,-23.4375,-18.5546875,-91.796875
122.7421875,-73.73046875,-30.2734375,-21.97265625,-91.796875
122.74609375,-35.15625,-28.80859375,-19.53125,-46.38671875
122.75,-26.85546875,-24.4140625,-14.16015625,-39.0625
122.75390625,-39.55078125,-22.94921875,-9.27734375,-19.04296875
122.7578125,-51.7578125,-21.97265625,-10.7421875,-63.4765625
122.76171875,-52.24609375,-22.94921875,-11.71875,-112.3046875
122.765625,-82.51953125,-26.3671875,-11.71875,-64.94140625
122.76953125,-38.57421875,-24.4140625,-17.08984375,-44.921875
122.7734375,-60.05859375,-26.85546875,-25.87890625,-42.48046875
122.77734375,-116.2109375,-34.1796875,-28.80859375,-19.04296875
122.78125,-75.1953125,-34.1796875,-23.4375,-16.11328125
122.78515625,-86.9140625,-33.69140625,-17.578125,-63.4765625
122.7890625,-99.609375,-32.71484375,-9.765625,-72.75390625
122.79296875,-55.17578125,-34.1796875,-12.6953125,-39.0625
122.796875,-40.0390625,-37.109375,-16.11328125,-47.36328125
122.80078125,-58.59375,-30.76171875,-8.7890625,-17.578125
122.8046875,4.39453125,-23.4375,-7.32421875,-50.29296875
122.80859375,-41.015625,-24.90234375,-14.6484375,-121.58203125
122.8125,-114.74609375,-31.73828125,-19.04296875,-78.61328125
122.81640625,-83.49609375,-31.25,-14.16015625,-62.5
122.8203125,-75.1953125,-22.94921875,-8.7890625,-76.66015625
122.82421875,-85.44921875,-23.92578125,-12.6953125,-90.8203125
122.828125,-67.87109375,-27.83203125,-16.11328125,-64.453125
122.83203125,-41.50390625,-35.15625,-26.85546875,-20.99609375
122.8359375,-53.22265625,-44.921875,-39.55078125,-67.87109375
122.83984375,-90.33203125,-46.875,-38.57421875,-123.53515625
122.84375,-73.2421875,-41.015625,-32.71484375,-95.703125
122.84765625,-54.19921875,-39.55078125,-30.76171875,-57.12890625
122.8515625,-72.75390625,-40.0390625,-28.3203125,-80.56640625
122.85546875,-83.984375,-42.96875,-29.78515625,-68.359375
122.859375,-43.9453125,-45.41015625,-30.2734375,-79.58984375
122.86328125,-41.50390625,-41.50390625,-33.203125,-126.46484375
122.8671875,-94.23828125,-34.66796875,-38.0859375,-72.75390625
122.87109375,-84.47265625,-37.59765625,-35.15625,-71.77734375
122.875,-48.33984375,-41.50390625,-33.69140625,-79.58984375
122.87890625,-28.3203125,-39.55078125,-38.57421875,-52.734375
122.8828125,-83.984375,-37.109375,-35.64453125,-90.33203125
122.88671875,-110.3515625,-35.64453125,-32.71484375,-105.95703125
122.890625,-43.9453125,-28.80859375,-25.87890625,-95.21484375
122.89453125,-66.40625,-23.4375,-22.94921875,-103.515625
122.8984375,-75.1953125,-23.92578125,-37.109375,-60.546875
122.90234375,-74.70703125,-25.390625,-51.26953125,-48.828125
122.90625,-46.38671875,-27.83203125,-45.41015625,-142.08984375
122.91015625,-58.59375,-27.34375,-33.203125,-113.76953125
122.9140625,-81.0546875,-25.87890625,-25.390625,-86.42578125
122.91796875,-44.43359375,-23.4375,-24.4140625,-100.5859375
122.921875,-45.8984375,-21.97265625,-25.390625,-89.35546875
122.92578125,-54.19921875,-23.92578125,-24.4140625,-47.36328125
122.9296875,-23.4375,-28.80859375,-25.390625,-40.0390625
122.93359375,-55.6640625,-27.83203125,-27.34375,-151.3671875
122.9375,-103.02734375,-29.78515625,-30.2734375,-85.9375
122.94140625,-76.66015625,-35.15625,-26.3671875,-49.31640625
122.9453125,-61.03515625,-36.62109375,-36.62109375,-109.375
122.94921875,-39.55078125,-38.57421875,-32.71484375,-79.58984375
122.953125,-14.16015625,-47.36328125,-13.671875,-69.3359375
122.95703125,55.6640625,-49.31640625,-6.34765625,-47.36328125
122.9609375,85.9375,-36.1328125,-20.5078125,-69.3359375
122.96484375,-52.24609375,-31.25,-34.1796875,-146.484375
122.96875,-174.31640625,-35.64453125,-24.4140625,-141.6015625
122.97265625,-198.2421875,-32.71484375,-21.484375,-131.8359375
122.9765625,-194.3359375,-26.3671875,-38.57421875,-226.5625
122.98046875,-226.5625,-24.4140625,-51.26953125,-279.78515625
122.984375,-241.2109375,-23.4375,-52.734375,-264.6484375
122.98828125,-234.86328125,-12.20703125,-49.31640625,-329.1015625
122.9921875,-181.640625,-5.859375,-50.29296875,-305.6640625
122.99609375,-205.078125,1.46484375,-54.19921875,-245.60546875
123.0,-275.390625,8.7890625,-56.640625,-309.5703125
123.00390625,-279.296875,3.41796875,-66.40625,-357.91015625
123.0078125,-224.12109375,0.48828125,-66.40625,-310.546875
123.01171875,-215.33203125,9.765625,-61.5234375,-284.1796875
123.015625,-195.3125,16.6015625,-67.87109375,-296.38671875
123.01953125,-176.7578125,21.484375,-72.75390625,-310.05859375
123.0234375,-191.40625,21.97265625,-85.44921875,-268.5546875
123.02734375,-177.24609375,19.53125,-91.796875,-270.01953125
123.03125,-133.30078125,19.53125,-78.125,-294.43359375
123.03515625,-139.6484375,22.4609375,-74.21875,-296.38671875
123.0390625,-61.5234375,31.25,-73.2421875,-263.671875
123.04296875,-54.19921875,36.62109375,-67.3828125,-154.78515625
123.046875,-120.60546875,36.1328125,-68.359375,-194.3359375
123.05078125,-83.0078125,46.38671875,-71.2890625,-227.05078125
123.0546875,-50.29296875,46.875,-75.68359375,-194.3359375
123.05859375,-14.6484375,35.15625,-80.56640625,-173.33984375
123.0625,-28.3203125,39.0625,-77.1484375,-126.953125
123.06640625,-45.8984375,34.1796875,-77.63671875,-143.5546875
123.0703125,25.390625,31.73828125,-80.078125,-163.57421875
123.07421875,42.48046875,39.0625,-83.0078125,-122.0703125
123.078125,33.69140625,37.59765625,-82.51953125,-95.703125
123.08203125,41.9921875,35.15625,-80.56640625,-106.93359375
123.0859375,14.6484375,35.15625,-73.2421875,-87.40234375
123.08984375,33.69140625,37.109375,-66.40625,-100.5859375
123.09375,51.7578125,35.15625,-71.77734375,-89.84375
123.09765625,58.59375,32.2265625,-66.89453125,-24.90234375
123.1015625,47.8515625,30.76171875,-62.01171875,-50.78125
123.10546875,66.89453125,29.78515625,-56.640625,-75.68359375
123.109375,82.03125,24.90234375,-43.45703125,-36.1328125
123.11328125,59.08203125,20.5078125,-41.015625,-34.1796875
123.1171875,62.01171875,19.04296875,-41.9921875,-9.27734375
123.12109375,66.89453125,16.11328125,-38.0859375,-1.46484375
123.125,32.71484375,12.20703125,-35.64453125,-47.36328125
123.12890625,37.59765625,7.32421875,-32.71484375,-13.671875
123.1328125,52.734375,7.32421875,-26.3671875,-32.71484375
123.13671875,69.82421875,3.41796875,-24.90234375,-22.4609375
123.140625,50.78125,1.46484375,-12.6953125,22.4609375
123.14453125,4.8828125,3.41796875,-10.25390625,-30.76171875
123.1484375,25.390625,0.48828125,-16.6015625,-22.4609375
123.15234375,82.51953125,-2.44140625,-14.16015625,-25.390625
123.15625,98.14453125,1.953125,-11.71875,-29.296875
123.16015625,17.578125,-2.44140625,-8.30078125,6.34765625
123.1640625,0.9765625,-9.27734375,-2.44140625,9.765625
123.16796875,3.90625,-16.11328125,3.90625,62.5
123.171875,20.01953125,-16.6015625,7.32421875,77.1484375
123.17578125,25.87890625,-8.30078125,8.7890625,-25.390625
123.1796875,20.5078125,-12.6953125,3.41796875,-31.73828125
123.18359375,36.1328125,-22.4609375,-1.46484375,-6.8359375
123.1875,67.87109375,-25.390625,0.0,-4.39453125
123.19140625,36.1328125,-19.04296875,5.859375,38.0859375
123.1953125,-4.39453125,-12.6953125,8.30078125,20.99609375
123.19921875,25.390625,-14.16015625,2.9296875,-11.23046875
123.203125,-5.37109375,-19.04296875,4.39453125,9.27734375
123.20703125,2.44140625,-19.04296875,10.25390625,48.33984375
123.2109375,58.10546875,-21.484375,17.08984375,43.9453125
123.21484375,61.03515625,-26.3671875,3.90625,-16.6015625
123.21875,46.38671875,-33.69140625,-2.44140625,-10.25390625
123.22265625,12.6953125,-34.66796875,10.25390625,15.13671875
123.2265625,13.671875,-34.66796875,5.37109375,8.30078125
123.23046875,34.1796875,-37.59765625,2.9296875,7.32421875
123.234375,22.94921875,-29.296875,2.9296875,47.8515625
123.23828125,-7.32421875,-25.390625,6.8359375,23.92578125
123.2421875,-18.5546875,-28.3203125,10.7421875,7.32421875
123.24609375,26.85546875,-27.34375,7.8125,9.27734375
123.25,14.6484375,-26.85546875,5.37109375,-2.9296875
123.25390625,1.46484375,-26.3671875,4.8828125,-32.2265625
123.2578125,14.16015625,-27.34375,-0.48828125,-37.59765625
123.26171875,3.90625,-35.15625,3.90625,16.6015625
123.265625,3.41796875,-34.66796875,11.23046875,23.4375
123.26953125,21.97265625,-24.4140625,12.6953125,9.765625
123.2734375,21.97265625,-22.4609375,19.53125,12.6953125
123.27734375,32.71484375,-26.85546875,15.13671875,64.94140625
123.28125,-17.08984375,-24.90234375,3.90625,16.11328125
123.28515625,-30.2734375,-31.73828125,1.953125,-79.58984375
123.2890625,-1.46484375,-35.15625,1.46484375,-30.76171875
123.29296875,-25.390625,-34.66796875,-4.8828125,-17.578125
123.296875,-36.1328125,-39.55078125,-4.39453125,-11.71875
123.30078125,-27.83203125,-39.0625,-0.9765625,-23.92578125
123.3046875,-20.99609375,-34.66796875,-5.859375,-8.7890625
123.30859375,-60.05859375,-39.55078125,-10.7421875,8.7890625
123.3125,-39.0625,-45.8984375,-5.37109375,-34.1796875
123.31640625,-19.53125,-42.48046875,-2.44140625,20.01953125
123.3203125,-31.73828125,-35.64453125,1.953125,12.20703125
123.32421875,-1.953125,-27.34375,0.9765625,-26.85546875
123.328125,-15.13671875,-29.296875,2.9296875,-16.6015625
123.33203125,-35.64453125,-32.71484375,7.32421875,-15.13671875
123.3359375,-7.8125,-32.2265625,-1.46484375,-10.7421875
123.33984375,3.41796875,-25.390625,-3.41796875,-24.90234375
123.34375,-0.48828125,-21.484375,-5.37109375,17.578125
123.34765625,-27.83203125,-23.92578125,-7.32421875,-4.8828125
123.3515625,-3.90625,-27.83203125,-2.9296875,-8.7890625
123.35546875,-65.91796875,-28.80859375,-7.32421875,-9.765625
123.359375,-59.08203125,-26.85546875,-14.16015625,-25.390625
123.36328125,-21.484375,-32.71484375,-9.27734375,-5.37109375
123.3671875,21.484375,-36.1328125,-5.859375,-21.484375
123.37109375,8.7890625,-35.15625,-10.25390625,-43.9453125
123.375,-59.5703125,-38.0859375,-8.7890625,-75.68359375
123.37890625,-42.48046875,-34.66796875,-2.44140625,-1.46484375
123.3828125,-39.55078125,-36.1328125,-10.7421875,6.34765625
123.38671875,-38.57421875,-36.62109375,-15.625,-64.453125
123.390625,-58.59375,-31.25,-19.53125,-73.73046875
123.39453125,-62.01171875,-38.57421875,-19.04296875,-57.12890625
123.3984375,-38.57421875,-45.41015625,-17.578125,-55.17578125
123.40234375,10.25390625,-42.48046875,-22.4609375,-57.12890625
123.40625,3.90625,-41.015625,-18.06640625,-6.34765625
123.41015625,-34.1796875,-44.921875,-19.53125,-2.44140625
123.4140625,-32.71484375,-43.9453125,-32.2265625,-48.33984375
123.41796875,-37.109375,-45.8984375,-34.66796875,-83.984375
123.421875,-48.33984375,-50.78125,-26.85546875,-32.71484375
123.42578125,-37.59765625,-47.36328125,-25.390625,-11.23046875
123.4296875,-39.55078125,-42.48046875,-25.87890625,-93.75
123.43359375,-68.84765625,-36.62109375,-24.90234375,-84.47265625
123.4375,-41.50390625,-38.57421875,-16.6015625,-55.6640625
123.44140625,-20.5078125,-42.96875,-10.25390625,-47.8515625
123.4453125,-30.2734375,-40.52734375,-20.99609375,-8.30078125
123.44921875,-44.43359375,-38.57421875,-33.69140625,-62.01171875
123.453125,-38.57421875,-29.296875,-30.76171875,-126.953125
123.45703125,-48.828125,-29.296875,-24.4140625,-35.15625
123.4609375,-57.6171875,-35.64453125,-27.83203125,-30.76171875
123.46484375,-32.71484375,-36.62109375,-39.0625,-92.7734375
123.46875,-44.43359375,-41.015625,-33.69140625,-71.2890625
123.47265625,-56.15234375,-43.45703125,-27.83203125,-89.84375
123.4765625,-62.98828125,-41.9921875,-39.55078125,-99.12109375
123.48046875,-80.078125,-46.38671875,-43.45703125,-70.80078125
123.484375,-48.828125,-48.828125,-38.57421875,-64.94140625
123.48828125,-54.19921875,-46.875,-38.0859375,-86.9140625
123.4921875,-67.87109375,-44.921875,-45.41015625,-70.80078125
123.49609375,-46.38671875,-49.31640625,-48.33984375,-24.4140625
123.5,-27.83203125,-47.8515625,-51.26953125,-50.78125
123.50390625,-23.4375,-42.48046875,-43.9453125,-51.7578125
123.5078125,-37.109375,-42.48046875,-37.109375,-69.3359375
123.51171875,-23.4375,-44.43359375,-45.41015625,-84.47265625
123.515625,-65.91796875,-43.45703125,-47.8515625,-79.58984375
123.51953125,-69.82421875,-44.921875,-47.36328125,-127.9296875
123.5234375,-22.4609375,-42.96875,-53.22265625,-88.37890625
123.52734375,-74.21875,-43.45703125,-52.24609375,-87.40234375
123.53125,-72.75390625,-46.875,-51.7578125,-62.5
123.53515625,-41.9921875,-44.43359375,-48.828125,-84.47265625
123.5390625,-45.41015625,-44.43359375,-45.41015625,-138.18359375
123.54296875,-88.8671875,-47.36328125,-48.33984375,-67.87109375
123.546875,-55.17578125,-50.78125,-49.31640625,-34.1796875
123.55078125,-25.87890625,-54.19921875,-45.8984375,-91.796875
123.5546875,-44.43359375,-48.828125,-41.50390625,-66.40625
123.55859375,-60.05859375,-44.43359375,-38.57421875,-4.8828125
123.5625,-42.48046875,-47.8515625,-37.59765625,-39.0625
123.56640625,-24.4140625,-49.31640625,-36.1328125,-84.47265625
123.5703125,-33.203125,-54.19921875,-38.0859375,-82.03125
123.57421875,-40.0390625,-53.7109375,-40.0390625,-63.4765625
123.578125,-57.6171875,-51.7578125,-37.59765625,-65.91796875
123.58203125,-47.36328125,-48.828125,-31.73828125,-59.5703125
123.5859375,-77.63671875,-47.36328125,-35.15625,-77.1484375
123.58984375,-69.3359375,-42.96875,-36.62109375,-85.44921875
123.59375,-2.44140625,-42.48046875,-32.71484375,-58.10546875
123.59765625,-76.171875,-50.78125,-34.66796875,-95.21484375
123.6015625,-52.24609375,-49.31640625,-28.80859375,-34.66796875
123.60546875,7.32421875,-49.8046875,-28.3203125,-37.59765625
123.609375,-107.91015625,-53.7109375,-34.66796875,-103.515625
123.61328125,-105.46875,-50.78125,-35.64453125,-40.52734375
123.6171875,-33.69140625,-50.29296875,-34.66796875,-70.80078125
123.62109375,-35.64453125,-50.29296875,-35.15625,-95.703125
123.625,-49.31640625,-47.8515625,-39.55078125,-89.84375
123.62890625,-64.94140625,-50.29296875,-39.0625,-87.890625
123.6328125,-76.171875,-50.78125,-40.0390625,-76.66015625
123.63671875,-83.984375,-47.8515625,-41.9921875,-76.171875
123.640625,-73.2421875,-50.78125,-32.2265625,-27.83203125
123.64453125,-44.43359375,-49.8046875,-32.71484375,-57.6171875
123.6484375,-48.828125,-45.8984375,-45.41015625,-74.21875
123.65234375,-62.98828125,-44.921875,-39.55078125,-36.1328125
123.65625,-59.08203125,-43.45703125,-37.59765625,-80.078125
123.66015625,-51.7578125,-46.38671875,-41.015625,-84.47265625
123.6640625,-33.69140625,-45.41015625,-45.41015625,-34.66796875
123.66796875,-47.8515625,-45.41015625,-46.38671875,-52.734375
123.671875,-90.33203125,-48.33984375,-48.828125,-84.9609375
123.67578125,-91.30859375,-43.9453125,-43.45703125,-51.26953125
123.6796875,-40.52734375,-41.9921875,-39.55078125,-72.75390625
123.68359375,-44.921875,-45.8984375,-43.45703125,-77.63671875
123.6875,-68.359375,-49.8046875,-38.0859375,-68.359375
123.69140625,-70.80078125,-44.43359375,-36.1328125,-35.64453125
123.6953125,-33.69140625,-37.109375,-34.1796875,-39.0625
123.69921875,-34.1796875,-32.2265625,-32.71484375,-68.359375
123.703125,-48.33984375,-30.76171875,-31.73828125,-56.640625
123.70703125,-48.828125,-30.76171875,-34.66796875,-77.1484375
123.7109375,-99.609375,-32.71484375,-35.64453125,-95.21484375
123.71484375,-85.44921875,-40.0390625,-29.296875,22.4609375
123.71875,-39.55078125,-47.8515625,-30.2734375,-15.13671875
123.72265625,-59.5703125,-41.50390625,-26.85546875,-96.19140625
123.7265625,-69.3359375,-44.43359375,-25.87890625,-49.31640625
123.73046875,-39.55078125,-52.24609375,-38.0859375,-39.55078125
123.734375,-73.2421875,-42.48046875,-40.52734375,-44.43359375
123.73828125,-52.734375,-42.48046875,-34.66796875,-86.42578125
123.7421875,-28.80859375,-45.41015625,-32.2265625,-63.96484375
123.74609375,-66.40625,-41.9921875,-32.2265625,-67.3828125
123.75,-64.94140625,-44.43359375,-32.71484375,-34.66796875
123.75390625,-18.5546875,-43.45703125,-35.64453125,-36.1328125
123.7578125,-75.1953125,-41.015625,-36.1328125,-79.1015625
123.76171875,-75.68359375,-42.96875,-37.109375,-70.3125
123.765625,-44.43359375,-37.109375,-43.9453125,-50.78125
123.76953125,-53.22265625,-35.64453125,-39.0625,-23.92578125
123.7734375,-21.484375,-37.109375,-34.66796875,-15.625
123.77734375,-21.484375,-35.64453125,-37.59765625,-28.3203125
123.78125,-70.80078125,-36.1328125,-35.15625,-72.75390625
123.78515625,-112.3046875,-31.73828125,-30.76171875,-113.76953125
123.7890625,-60.546875,-26.3671875,-29.296875,-92.28515625
123.79296875,-44.921875,-26.85546875,-28.3203125,-59.5703125
123.796875,-105.46875,-27.34375,-28.80859375,-88.37890625
123.80078125,-107.421875,-26.85546875,-30.76171875,-51.7578125
123.8046875,-79.1015625,-25.87890625,-26.85546875,-31.25
123.80859375,-62.98828125,-20.99609375,-21.484375,-93.75
123.8125,-59.5703125,-20.5078125,-22.4609375,-97.16796875
123.81640625,-59.08203125,-20.99609375,-27.34375,-69.82421875
123.8203125,-45.41015625,-19.53125,-27.83203125,-58.59375
123.82421875,-27.83203125,-23.4375,-29.78515625,-50.78125
123.828125,-86.9140625,-26.3671875,-28.3203125,-46.875
123.83203125,-101.07421875,-23.92578125,-25.390625,-69.3359375
123.8359375,-48.828125,-22.94921875,-31.73828125,-92.7734375
123.83984375,-61.03515625,-26.3671875,-30.76171875,-77.63671875
123.84375,-58.10546875,-25.87890625,-27.83203125,-38.0859375
123.84765625,-62.01171875,-22.94921875,-34.1796875,-34.1796875
123.8515625,-57.6171875,-25.390625,-34.1796875,-43.45703125
123.85546875,-43.9453125,-26.3671875,-24.90234375,-40.0390625
123.859375,-65.91796875,-23.4375,-28.3203125,-71.77734375
123.86328125,-80.56640625,-25.390625,-35.64453125,-106.4453125
123.8671875,-90.8203125,-32.71484375,-35.15625,-69.3359375
123.87109375,-58.59375,-27.34375,-30.76171875,-35.64453125
123.875,-39.55078125,-27.34375,-27.34375,-66.40625
123.87890625,-40.52734375,-29.78515625,-31.73828125,-50.78125
123.8828125,-41.50390625,-24.4140625,-31.73828125,-23.92578125
123.88671875,-48.828125,-25.87890625,-32.71484375,-44.921875
123.890625,-39.55078125,-27.34375,-29.78515625,-38.0859375
123.89453125,-75.1953125,-25.390625,-28.3203125,-11.71875
123.8984375,-76.66015625,-22.4609375,-36.1328125,-41.9921875
123.90234375,-59.5703125,-21.97265625,-38.0859375,-109.375
123.90625,-18.5546875,-25.390625,-35.64453125,-104.00390625
123.91015625,4.39453125,-25.87890625,-33.69140625,-64.453125
123.9140625,-83.49609375,-24.90234375,-34.1796875,-69.3359375
123.91796875,-75.1953125,-21.484375,-36.1328125,-64.453125
123.921875,-53.22265625,-17.578125,-36.1328125,-58.59375
123.92578125,-66.89453125,-22.94921875,-43.45703125,-48.33984375
123.9296875,-49.31640625,-29.296875,-37.59765625,-45.41015625
123.93359375,-49.31640625,-27.83203125,-36.62109375,-63.96484375
123.9375,-57.6171875,-28.3203125,-41.9921875,-27.83203125
123.94140625,-3.90625,-26.3671875,-35.15625,-34.66796875
123.9453125,-34.66796875,-29.78515625,-34.66796875,-70.3125
123.94921875,-83.0078125,-40.0390625,-39.0625,-68.84765625
123.953125,-49.31640625,-32.71484375,-39.55078125,-109.375
123.95703125,-47.8515625,-30.2734375,-41.015625,-84.47265625
123.9609375,-87.40234375,-32.2265625,-42.96875,-94.23828125
123.96484375,-64.453125,-32.71484375,-42.96875,-72.75390625
123.96875,-14.6484375,-34.1796875,-37.59765625,-59.5703125
123.97265625,-50.29296875,-33.69140625,-38.0859375,-89.84375
123.9765625,-52.734375,-33.203125,-44.43359375,-59.5703125
123.98046875,-41.9921875,-32.71484375,-42.96875,-51.7578125
123.984375,-39.55078125,-28.80859375,-36.1328125,-42.96875
123.98828125,-34.66796875,-26.3671875,-31.25,-20.5078125
123.9921875,-37.59765625,-25.87890625,-34.66796875,-43.45703125
123.99609375,-52.734375,-25.390625,-35.15625,-75.68359375
124.0,-42.48046875,-23.4375,-27.34375,-26.3671875
124.00390625,-40.52734375,-26.85546875,-20.01953125,-38.0859375
124.0078125,-30.76171875,-30.2734375,-24.4140625,-84.9609375
124.01171875,-32.71484375,-28.3203125,-36.1328125,-68.84765625
124.015625,-50.78125,-35.15625,-36.62109375,-17.578125
124.01953125,-61.5234375,-38.0859375,-34.1796875,-16.6015625
124.0234375,-33.69140625,-28.3203125,-44.921875,-95.703125
124.02734375,-51.26953125,-26.85546875,-50.29296875,-75.68359375
124.03125,-74.70703125,-33.203125,-46.38671875,-48.828125
124.03515625,-58.10546875,-39.55078125,-53.22265625,-71.77734375
124.0390625,-48.828125,-40.0390625,-52.24609375,-66.40625
124.04296875,-32.2265625,-32.2265625,-44.43359375,-50.29296875
124.046875,-23.4375,-30.76171875,-40.52734375,-51.26953125
124.05078125,-36.62109375,-28.80859375,-39.0625,-35.15625
124.0546875,-74.21875,-30.2734375,-42.96875,-33.203125
124.05859375,-70.80078125,-36.1328125,-50.29296875,-76.66015625
124.0625,-76.66015625,-35.15625,-48.828125,-61.5234375
124.06640625,-73.2421875,-37.109375,-43.9453125,-33.203125
124.0703125,-63.4765625,-40.0390625,-44.921875,-53.7109375
124.07421875,-79.1015625,-38.57421875,-50.29296875,-84.47265625
124.078125,-75.68359375,-38.57421875,-50.29296875,-82.51953125
124.08203125,-48.828125,-41.015625,-48.33984375,-47.36328125
124.0859375,-47.36328125,-36.62109375,-47.8515625,-34.66796875
124.08984375,-37.109375,-29.78515625,-48.828125,-41.9921875
124.09375,-7.8125,-35.15625,-50.29296875,-27.83203125
124.09765625,-21.97265625,-39.55078125,-47.8515625,-48.33984375
124.1015625,-68.359375,-36.1328125,-43.45703125,-61.03515625
124.10546875,-56.640625,-31.25,-35.64453125,-61.03515625
124.109375,-65.4296875,-32.2265625,-38.0859375,-46.38671875
124.11328125,-69.3359375,-27.34375,-39.0625,-44.921875
124.1171875,-37.109375,-28.80859375,-32.2265625,-47.8515625
124.12109375,-42.48046875,-32.71484375,-34.66796875,-17.08984375
124.125,-46.38671875,-29.78515625,-40.52734375,-35.15625
124.12890625,-44.43359375,-36.1328125,-43.9453125,-59.5703125
124.1328125,-53.7109375,-36.62109375,-50.78125,-60.546875
124.13671875,-58.10546875,-37.109375,-46.38671875,-65.91796875
124.140625,-56.15234375,-42.96875,-42.48046875,-25.390625
124.14453125,-34.66796875,-38.0859375,-48.828125,-24.90234375
124.1484375,-48.33984375,-38.57421875,-56.640625,-76.171875
124.15234375,-78.61328125,-43.9453125,-54.19921875,-25.87890625
124.15625,-73.2421875,-40.0390625,-55.17578125,-48.33984375
124.16015625,-12.20703125,-38.57421875,-60.05859375,-99.12109375
124.1640625,-1.46484375,-38.57421875,-52.734375,-38.0859375
124.16796875,-65.4296875,-37.59765625,-47.36328125,-47.8515625
124.171875,-54.6875,-39.55078125,-54.6875,-60.546875
124.17578125,-55.6640625,-41.9921875,-58.10546875,-18.06640625
124.1796875,-45.41015625,-41.9921875,-50.78125,-47.36328125
124.18359375,-48.828125,-33.69140625,-51.26953125,-56.640625
124.1875,-32.2265625,-35.64453125,-58.59375,-91.30859375
124.19140625,-29.78515625,-37.109375,-56.640625,-77.63671875
124.1953125,-63.96484375,-33.203125,-49.31640625,-49.8046875
124.19921875,-53.7109375,-35.15625,-47.8515625,-64.453125
124.203125,-17.578125,-36.62109375,-43.45703125,-48.828125
124.20703125,-5.37109375,-36.62109375,-43.45703125,-85.9375
124.2109375,-56.15234375,-44.43359375,-51.26953125,-100.09765625
124.21484375,-104.4921875,-50.29296875,-61.03515625,-111.328125
124.21875,-68.359375,-41.50390625,-61.5234375,-96.19140625
124.22265625,-48.33984375,-41.015625,-52.24609375,-61.5234375
124.2265625,-47.36328125,-46.38671875,-48.33984375,-31.73828125
124.23046875,-44.921875,-44.43359375,-50.29296875,-16.11328125
124.234375,-55.17578125,-41.015625,-53.22265625,-75.68359375
124.23828125,-56.640625,-37.109375,-49.31640625,-77.63671875
124.2421875,-58.59375,-32.71484375,-42.96875,-66.89453125
124.24609375,-41.9921875,-35.15625,-41.9921875,-52.734375
124.25,-41.9921875,-41.9921875,-45.8984375,-61.03515625
124.25390625,-56.640625,-40.0390625,-41.9921875,-47.36328125
124.2578125,-33.69140625,-35.15625,-36.62109375,-48.828125
124.26171875,-12.20703125,-34.1796875,-39.0625,-43.9453125
124.265625,-40.52734375,-37.59765625,-42.48046875,-41.50390625
124.26953125,-60.05859375,-38.0859375,-38.0859375,-33.203125
124.2734375,-41.50390625,-39.55078125,-39.0625,-42.48046875
124.27734375,-59.5703125,-36.62109375,-41.015625,-79.58984375
124.28125,-53.22265625,-35.15625,-41.50390625,-65.4296875
124.28515625,-35.64453125,-40.0390625,-44.921875,-50.78125
124.2890625,-55.17578125,-46.38671875,-42.48046875,-76.171875
124.29296875,-61.03515625,-47.8515625,-52.24609375,-35.15625
124.296875,-56.15234375,-44.921875,-53.7109375,-30.2734375
124.30078125,-55.6640625,-43.45703125,-47.8515625,-100.09765625
124.3046875,-20.99609375,-43.45703125,-49.31640625,-62.01171875
124.30859375,-2.9296875,-41.015625,-46.875,-32.71484375
124.3125,-54.6875,-34.1796875,-43.45703125,-57.6171875
124.31640625,-59.08203125,-35.64453125,-43.9453125,-71.2890625
124.3203125,-57.12890625,-34.1796875,-42.48046875,-16.6015625
124.32421875,-61.5234375,-29.78515625,-38.57421875,-10.25390625
124.328125,-61.03515625,-32.71484375,-39.55078125,-86.42578125
124.33203125,-31.25,-37.59765625,-39.55078125,-61.03515625
124.3359375,-29.78515625,-39.0625,-41.50390625,-53.7109375
124.33984375,-28.3203125,-34.66796875,-38.57421875,-40.0390625
124.34375,-52.24609375,-37.109375,-36.1328125,-62.5
124.34765625,-67.3828125,-39.0625,-34.1796875,-53.7109375
124.3515625,-46.38671875,-33.69140625,-35.64453125,-42.96875
124.35546875,-35.15625,-29.296875,-37.59765625,-70.80078125
124.359375,-29.78515625,-27.83203125,-38.57421875,-34.66796875
124.36328125,-43.45703125,-24.90234375,-33.203125,19.53125
124.3671875,2.44140625,-27.34375,-35.64453125,-22.4609375
124.37109375,-21.97265625,-29.296875,-42.48046875,-94.23828125
124.375,-75.68359375,-34.66796875,-40.0390625,-51.26953125
124.37890625,-39.0625,-42.48046875,-40.0390625,-24.90234375
124.3828125,-62.98828125,-37.109375,-39.55078125,-58.10546875
124.38671875,-65.91796875,-34.66796875,-42.48046875,-75.68359375
124.390625,-16.11328125,-36.62109375,-38.57421875,-80.078125
124.39453125,-20.01953125,-35.64453125,-37.59765625,-20.01953125
124.3984375,-43.9453125,-34.66796875,-41.50390625,-22.94921875
124.40234375,-34.66796875,-36.1328125,-43.9453125,-44.43359375
124.40625,-57.6171875,-38.57421875,-44.921875,-34.1796875
124.41015625,-10.25390625,-34.1796875,-44.43359375,-75.68359375
124.4140625,-6.8359375,-38.0859375,-48.33984375,-68.84765625
124.41796875,-86.42578125,-41.50390625,-48.33984375,-79.58984375
124.421875,-73.2421875,-34.1796875,-46.875,-83.984375
124.42578125,-78.125,-37.59765625,-49.8046875,-33.69140625
124.4296875,-71.77734375,-42.96875,-48.828125,-15.625
124.43359375,-35.15625,-41.9921875,-46.38671875,-70.3125
124.4375,-24.90234375,-41.9921875,-41.9921875,-73.73046875
124.44140625,-35.64453125,-40.52734375,-46.875,-43.9453125
124.4453125,-34.1796875,-33.203125,-56.640625,-27.34375
124.44921875,-26.3671875,-33.203125,-47.36328125,-18.06640625
124.453125,-45.41015625,-37.59765625,-33.69140625,-64.453125
124.45703125,-2.9296875,-39.0625,-44.43359375,-32.71484375
124.4609375,0.0,-40.52734375,-54.6875,1.953125
124.46484375,-25.390625,-41.50390625,-50.29296875,-29.78515625
124.46875,3.90625,-42.96875,-37.59765625,13.18359375
124.47265625,0.9765625,-43.9453125,-37.109375,12.20703125
124.4765625,46.38671875,-43.9453125,-45.8984375,23.4375
124.48046875,53.22265625,-38.57421875,-42.48046875,52.734375
124.484375,46.38671875,-38.57421875,-36.62109375,63.96484375
124.48828125,116.69921875,-46.875,-41.015625,110.3515625
124.4921875,107.91015625,-48.33984375,-50.29296875,120.1171875
124.49609375,32.2265625,-48.33984375,-53.22265625,100.09765625
124.5,78.125,-46.875,-47.36328125,135.25390625
124.50390625,113.28125,-48.828125,-44.921875,120.60546875
124.5078125,86.9140625,-50.78125,-50.29296875,108.3984375
124.51171875,110.83984375,-49.31640625,-49.31640625,111.81640625
124.515625,96.19140625,-48.828125,-48.33984375,108.88671875
124.51953125,55.17578125,-45.41015625,-48.33984375,92.28515625
124.5234375,96.6796875,-41.015625,-46.38671875,135.25390625
124.52734375,113.76953125,-43.9453125,-45.41015625,159.1796875
124.53125,111.81640625,-46.38671875,-44.43359375,129.39453125
124.53515625,63.4765625,-45.41015625,-48.33984375,82.03125
124.5390625,61.03515625,-44.43359375,-53.7109375,49.8046875
124.54296875,77.63671875,-43.45703125,-51.26953125,83.0078125
124.546875,64.94140625,-44.43359375,-47.36328125,78.125
124.55078125,62.98828125,-49.8046875,-49.31640625,84.47265625
124.5546875,16.6015625,-52.24609375,-57.12890625,123.046875
124.55859375,17.08984375,-46.38671875,-60.546875,79.1015625
124.5625,56.15234375,-46.38671875,-59.5703125,59.5703125
124.56640625,44.43359375,-51.26953125,-54.19921875,67.3828125
124.5703125,41.015625,-51.26953125,-49.8046875,74.70703125
124.57421875,39.0625,-54.6875,-50.78125,74.21875
124.578125,24.4140625,-59.5703125,-54.19921875,45.8984375
124.58203125,60.05859375,-58.10546875,-49.8046875,74.21875
124.5859375,50.29296875,-58.10546875,-48.828125,118.65234375
124.58984375,-12.6953125,-62.98828125,-57.6171875,63.4765625
124.59375,5.37109375,-61.03515625,-55.17578125,16.11328125
124.59765625,-25.390625,-60.05859375,-49.31640625,7.32421875
124.6015625,-16.11328125,-62.01171875,-48.33984375,46.875
124.60546875,-3.41796875,-60.546875,-54.6875,11.23046875
124.609375,-8.7890625,-60.05859375,-55.17578125,33.203125
124.61328125,21.97265625,-59.08203125,-51.26953125,76.171875
124.6171875,-28.3203125,-54.6875,-57.6171875,-17.578125
124.62109375,-50.29296875,-55.6640625,-60.05859375,-30.76171875
124.625,-29.78515625,-60.05859375,-54.6875,-19.53125
124.62890625,-12.6953125,-56.640625,-45.8984375,-28.3203125
124.6328125,-31.73828125,-48.33984375,-42.48046875,20.5078125
124.63671875,-67.87109375,-45.41015625,-44.43359375,46.875
124.640625,-17.08984375,-48.33984375,-46.875,-15.625
124.64453125,32.2265625,-45.41015625,-48.828125,-25.390625
124.6484375,-8.7890625,-35.64453125,-45.8984375,-13.671875
124.65234375,-41.9921875,-35.15625,-41.015625,18.06640625
124.65625,-45.8984375,-43.45703125,-39.0625,-14.16015625
124.66015625,-40.52734375,-42.96875,-41.50390625,-23.92578125
124.6640625,-33.203125,-38.0859375,-41.015625,0.0
124.66796875,-29.296875,-40.52734375,-41.9921875,-46.875
124.671875,-46.38671875,-43.45703125,-44.921875,5.37109375
124.67578125,-34.1796875,-44.43359375,-44.43359375,14.16015625
124.6796875,-16.11328125,-46.875,-52.24609375,-6.34765625
124.68359375,8.7890625,-47.8515625,-56.640625,-35.15625
124.6875,-38.57421875,-49.31640625,-53.7109375,-43.9453125
124.69140625,-83.0078125,-52.24609375,-51.26953125,12.6953125
124.6953125,-63.4765625,-48.33984375,-51.7578125,-31.73828125
124.69921875,-62.98828125,-42.48046875,-50.29296875,-49.8046875
124.703125,-45.8984375,-43.9453125,-44.43359375,-30.2734375
124.70703125,-63.96484375,-44.921875,-42.96875,-41.015625
124.7109375,-41.015625,-45.41015625,-43.45703125,-46.38671875
124.71484375,-27.34375,-47.36328125,-45.41015625,-15.625
124.71875,-42.48046875,-42.96875,-45.8984375,-20.99609375
124.72265625,-31.25,-41.015625,-47.8515625,-20.5078125
124.7265625,-15.625,-45.41015625,-50.78125,-17.08984375
124.73046875,-24.4140625,-44.43359375,-52.734375,-32.2265625
124.734375,-70.80078125,-43.9453125,-49.8046875,1.953125
124.73828125,-72.265625,-47.36328125,-50.29296875,-80.078125
124.7421875,-89.84375,-47.36328125,-49.31640625,-75.1953125
124.74609375,-71.77734375,-50.29296875,-50.29296875,1.46484375
124.75,-36.1328125,-52.24609375,-47.8515625,-99.12109375
124.75390625,-88.37890625,-50.78125,-46.875,-105.95703125
124.7578125,-89.35546875,-56.640625,-57.6171875,-83.0078125
124.76171875,-20.01953125,-66.40625,-61.5234375,-46.38671875
124.765625,-46.38671875,-64.453125,-58.10546875,-24.4140625
124.76953125,-84.47265625,-55.6640625,-59.5703125,-44.43359375
124.7734375,-42.96875,-55.6640625,-58.10546875,-49.31640625
124.77734375,-41.015625,-56.15234375,-42.96875,-64.453125
124.78125,-55.17578125,-53.22265625,-41.015625,-40.52734375
124.78515625,-49.31640625,-53.22265625,-56.640625,-30.76171875
124.7890625,-26.3671875,-51.26953125,-53.22265625,-33.203125
124.79296875,-81.54296875,-51.7578125,-44.43359375,-53.7109375
124.796875,-28.80859375,-49.8046875,-44.921875,-49.31640625
124.80078125,-17.578125,-45.41015625,-50.78125,-43.45703125
124.8046875,-104.00390625,-52.24609375,-52.734375,-62.98828125
124.80859375,-81.54296875,-52.734375,-46.875,-41.50390625
124.8125,-76.171875,-47.36328125,-48.828125,-39.55078125
124.81640625,-66.40625,-47.8515625,-47.36328125,-27.34375
124.8203125,-31.73828125,-45.8984375,-45.8984375,-37.59765625
124.82421875,-57.6171875,-43.9453125,-51.26953125,-79.58984375
124.828125,-77.1484375,-46.875,-50.78125,-31.25
124.83203125,-37.59765625,-48.33984375,-46.38671875,-9.765625
124.8359375,-49.31640625,-45.41015625,-47.36328125,-44.43359375
124.83984375,-50.78125,-49.8046875,-49.31640625,-6.34765625
124.84375,-49.8046875,-48.828125,-48.828125,-15.625
124.84765625,-68.84765625,-46.875,-44.921875,-71.2890625
124.8515625,-67.3828125,-49.8046875,-46.875,-79.1015625
124.85546875,-75.1953125,-48.828125,-52.734375,-74.21875
124.859375,-90.33203125,-50.29296875,-45.8984375,4.8828125
124.86328125,-62.01171875,-50.29296875,-38.0859375,-21.97265625
124.8671875,-18.5546875,-43.9453125,-47.8515625,-34.1796875
124.87109375,-89.84375,-37.59765625,-58.10546875,-106.4453125
124.875,-127.9296875,-39.55078125,-56.15234375,-165.52734375
124.87890625,-152.34375,-44.43359375,-50.29296875,-139.16015625
124.8828125,-168.45703125,-47.8515625,-47.36328125,-174.31640625
124.88671875,-209.9609375,-52.734375,-46.875,-183.10546875
124.890625,-259.27734375,-49.8046875,-46.38671875,-263.18359375
124.89453125,-249.0234375,-45.41015625,-55.6640625,-261.71875
124.8984375,-290.0390625,-46.875,-61.5234375,-270.01953125
124.90234375,-324.21875,-46.875,-48.33984375,-350.5859375
124.90625,-303.22265625,-41.50390625,-41.9921875,-350.5859375
124.91015625,-301.7578125,-41.9921875,-56.15234375,-326.66015625
124.9140625,-329.58984375,-44.921875,-61.5234375,-333.0078125
124.91796875,-375.9765625,-44.921875,-62.01171875,-352.05078125
124.921875,-367.67578125,-44.921875,-63.4765625,-355.46875
124.92578125,-306.15234375,-39.0625,-66.89453125,-346.19140625
124.9296875,-287.109375,-34.1796875,-63.4765625,-333.984375
124.93359375,-286.1328125,-25.390625,-51.26953125,-287.109375
124.9375,-282.71484375,-21.97265625,-52.24609375,-245.60546875
124.94140625,-258.7890625,-21.97265625,-47.8515625,-249.51171875
124.9453125,-217.28515625,-23.92578125,-43.9453125,-243.1640625
124.94921875,-221.6796875,-16.6015625,-40.0390625,-218.75
124.953125,-217.7734375,-13.18359375,-46.875,-231.93359375
124.95703125,-184.5703125,-22.94921875,-48.33984375,-221.6796875
124.9609375,-179.6875,-21.97265625,-44.921875,-185.546875
124.96484375,-168.9453125,-18.5546875,-52.734375,-186.03515625
124.96875,-179.19921875,-17.08984375,-50.29296875,-137.6953125
124.97265625,-171.875,-20.99609375,-49.31640625,-127.9296875
124.9765625,-125.0,-17.08984375,-54.19921875,-182.12890625
124.98046875,-107.91015625,-16.11328125,-49.8046875,-151.3671875
124.984375,-110.3515625,-17.08984375,-47.8515625,-116.2109375
124.98828125,-117.1875,-15.625,-47.8515625,-90.8203125
124.9921875,-83.984375,-20.5078125,-40.0390625,-104.4921875
124.99609375,-85.9375,-17.08984375,-43.9453125,-91.796875
125.0,-83.49609375,-15.13671875,-40.52734375,-62.5
125.00390625,-88.37890625,-18.5546875,-38.0859375,-67.3828125
125.0078125,-74.70703125,-15.13671875,-39.55078125,-82.03125
125.01171875,-6.34765625,-8.30078125,-36.62109375,-30.2734375
125.015625,-15.13671875,-9.765625,-38.0859375,-0.48828125
125.01953125,-49.8046875,-18.5546875,-47.36328125,-84.47265625
125.0234375,-47.8515625,-18.5546875,-52.734375,-83.49609375
125.02734375,-54.6875,-18.06640625,-47.36328125,-57.12890625
125.03125,-61.03515625,-21.97265625,-46.875,-59.08203125
125.03515625,-32.71484375,-27.34375,-48.828125,-70.3125
125.0390625,-26.3671875,-25.390625,-52.24609375,-31.73828125
125.04296875,-48.33984375,-23.92578125,-51.7578125,-7.32421875
125.046875,-11.23046875,-29.296875,-46.875,-28.80859375
125.05078125,19.53125,-30.76171875,-48.33984375,-39.55078125
125.0546875,3.41796875,-29.296875,-53.7109375,-55.6640625
125.05859375,-58.10546875,-22.94921875,-43.9453125,-20.01953125
125.0625,-48.828125,-18.5546875,-41.50390625,-34.1796875
125.06640625,-28.80859375,-18.06640625,-43.9453125,-67.87109375
125.0703125,-14.6484375,-17.08984375,-37.109375,-28.80859375
125.07421875,-11.71875,-18.5546875,-41.015625,-13.18359375
125.078125,-34.1796875,-15.625,-41.015625,-10.7421875
125.08203125,-9.765625,-11.71875,-40.0390625,-29.296875
125.0859375,-2.44140625,-19.04296875,-45.41015625,-38.0859375
125.08984375,-2.9296875,-21.97265625,-43.45703125,-4.39453125
125.09375,13.671875,-15.625,-40.0390625,23.4375
125.09765625,0.48828125,-9.765625,-40.52734375,35.15625
125.1015625,-20.5078125,-10.25390625,-37.59765625,7.8125
125.10546875,-27.83203125,-16.11328125,-35.64453125,-18.5546875
125.109375,-13.18359375,-17.578125,-36.62109375,-43.9453125
125.11328125,-30.2734375,-14.16015625,-36.1328125,-41.015625
125.1171875,-53.22265625,-14.6484375,-35.64453125,-27.83203125
125.12109375,0.9765625,-13.18359375,-32.2265625,-22.94921875
125.125,8.30078125,-11.71875,-30.76171875,-15.13671875
125.12890625,2.44140625,-8.7890625,-26.3671875,11.23046875
125.1328125,13.18359375,-6.34765625,-21.97265625,1.46484375
125.13671875,-2.9296875,-7.8125,-26.85546875,-46.38671875
125.140625,-17.08984375,-12.20703125,-29.78515625,-35.64453125
125.14453125,-7.8125,-14.6484375,-29.78515625,-40.0390625
125.1484375,18.5546875,-9.765625,-23.92578125,57.12890625
125.15234375,-9.27734375,-16.6015625,-32.71484375,38.0859375
125.15625,-41.50390625,-22.4609375,-38.57421875,-91.30859375
125.16015625,-19.53125,-16.11328125,-30.2734375,-80.078125
125.1640625,4.8828125,-10.25390625,-25.390625,-45.41015625
125.16796875,7.8125,-13.18359375,-29.78515625,-53.22265625
125.171875,-4.8828125,-18.06640625,-29.296875,-88.37890625
125.17578125,-5.37109375,-18.5546875,-28.80859375,-72.75390625
125.1796875,-42.48046875,-18.5546875,-35.64453125,-83.49609375
125.18359375,-40.52734375,-20.01953125,-36.1328125,-69.82421875
125.1875,-33.203125,-15.625,-33.69140625,24.90234375
125.19140625,-34.66796875,-13.671875,-34.1796875,-52.24609375
125.1953125,22.4609375,-17.578125,-37.109375,-130.859375
125.19921875,-0.48828125,-19.04296875,-37.109375,-80.56640625
125.203125,-20.01953125,-17.08984375,-27.34375,-55.6640625
125.20703125,-19.04296875,-23.4375,-30.76171875,-72.265625
125.2109375,-38.57421875,-30.76171875,-38.0859375,-79.58984375
125.21484375,-16.11328125,-28.80859375,-40.0390625,-57.6171875
125.21875,-24.4140625,-28.80859375,-42.96875,-77.1484375
125.22265625,-31.25,-31.25,-41.015625,-87.890625
125.2265625,-36.62109375,-27.83203125,-45.41015625,-70.80078125
125.23046875,-33.69140625,-29.296875,-42.96875,-98.6328125
125.234375,-27.34375,-25.87890625,-36.62109375,-80.56640625
125.23828125,-29.296875,-20.5078125,-37.109375,-50.78125
125.2421875,-18.06640625,-21.97265625,-39.0625,-71.77734375
125.24609375,-18.5546875,-22.94921875,-46.875,-66.89453125
125.25,-43.45703125,-24.4140625,-44.43359375,-51.7578125
125.25390625,-27.83203125,-24.4140625,-38.0859375,-97.16796875
125.2578125,-26.85546875,-31.73828125,-39.55078125,-41.9921875
125.26171875,-56.640625,-33.69140625,-42.96875,-15.13671875
125.265625,-37.59765625,-28.80859375,-43.9453125,-135.25390625
125.26953125,-47.36328125,-30.2734375,-35.64453125,-113.76953125
125.2734375,-32.71484375,-32.2265625,-36.1328125,-92.7734375
125.27734375,-27.34375,-33.69140625,-45.8984375,-82.03125
125.28125,-1.46484375,-31.25,-39.55078125,-45.8984375
125.28515625,-18.5546875,-29.78515625,-33.203125,-37.109375
125.2890625,-43.9453125,-28.80859375,-31.73828125,-36.62109375
125.29296875,-44.921875,-26.85546875,-41.015625,-58.10546875
125.296875,-71.77734375,-26.85546875,-53.22265625,-98.14453125
125.30078125,-46.875,-26.85546875,-48.828125,-92.7734375
125.3046875,-35.15625,-30.2734375,-41.50390625,-90.33203125
125.30859375,-31.25,-32.2265625,-40.0390625,-30.2734375
125.3125,-23.4375,-27.34375,-42.96875,-36.1328125
125.31640625,-10.7421875,-28.3203125,-42.96875,-70.3125
125.3203125,-34.1796875,-39.0625,-37.59765625,-46.38671875
125.32421875,-64.94140625,-41.9921875,-40.52734375,-67.87109375
125.328125,-74.21875,-39.55078125,-44.921875,-81.54296875
125.33203125,-50.78125,-39.0625,-42.96875,-62.01171875
125.3359375,-47.8515625,-35.64453125,-37.59765625,-64.453125
125.33984375,-63.4765625,-30.2734375,-34.66796875,-63.4765625
125.34375,-51.7578125,-28.80859375,-33.203125,-50.29296875
125.34765625,-74.70703125,-23.92578125,-30.76171875,-76.66015625
125.3515625,-57.12890625,-25.390625,-34.1796875,-33.203125
125.35546875,-47.8515625,-30.76171875,-33.203125,-33.69140625
125.359375,-82.03125,-29.296875,-33.203125,-100.09765625
125.36328125,-57.12890625,-31.73828125,-41.9921875,-75.1953125
125.3671875,-61.03515625,-35.15625,-45.8984375,-55.6640625
125.37109375,-84.9609375,-35.64453125,-43.45703125,-74.70703125
125.375,-70.3125,-35.15625,-42.96875,-49.31640625
125.37890625,-51.26953125,-35.64453125,-41.50390625,-37.109375
125.3828125,-58.10546875,-37.109375,-37.59765625,-85.44921875
125.38671875,-42.96875,-36.1328125,-33.203125,-55.17578125
125.390625,-42.96875,-33.203125,-31.25,-51.26953125
125.39453125,-73.73046875,-30.2734375,-37.109375,-67.87109375
125.3984375,-44.921875,-24.90234375,-35.15625,-42.48046875
125.40234375,-62.98828125,-29.78515625,-37.59765625,-67.3828125
125.40625,-109.375,-36.62109375,-40.52734375,-32.2265625
125.41015625,-60.546875,-32.71484375,-35.64453125,-28.80859375
125.4140625,-78.61328125,-28.3203125,-37.59765625,-62.01171875
125.41796875,-93.26171875,-26.3671875,-36.62109375,-31.25
125.421875,-45.8984375,-32.2265625,-36.62109375,-66.40625
125.42578125,-45.41015625,-35.15625,-35.15625,-89.35546875
125.4296875,-79.1015625,-38.0859375,-32.2265625,-62.5
125.43359375,-70.80078125,-40.52734375,-31.25,-60.546875
125.4375,-57.12890625,-30.2734375,-27.34375,-68.84765625
125.44140625,-63.96484375,-33.69140625,-36.62109375,-42.48046875
125.4453125,-49.8046875,-32.2265625,-34.66796875,-23.4375
125.44921875,-55.6640625,-26.85546875,-22.4609375,-50.29296875
125.453125,-62.01171875,-32.71484375,-27.83203125,-52.24609375
125.45703125,-46.38671875,-34.66796875,-32.2265625,-41.9921875
125.4609375,-47.36328125,-29.78515625,-35.15625,-44.43359375
125.46484375,-59.5703125,-24.90234375,-35.64453125,-34.66796875
125.46875,-57.12890625,-23.92578125,-24.90234375,-37.59765625
125.47265625,-41.015625,-18.06640625,-22.4609375,8.7890625
125.4765625,-60.05859375,-17.578125,-25.87890625,0.9765625
125.48046875,-71.2890625,-20.99609375,-27.34375,-70.3125
125.484375,-67.3828125,-22.94921875,-30.76171875,-41.9921875
125.48828125,-78.125,-21.97265625,-27.83203125,-58.10546875
125.4921875,-51.7578125,-22.94921875,-30.2734375,-50.78125
125.49609375,-30.2734375,-24.90234375,-35.64453125,-20.5078125
125.5,-49.31640625,-21.97265625,-29.78515625,-21.97265625
125.50390625,-66.89453125,-21.97265625,-26.3671875,-30.2734375
125.5078125,-67.87109375,-27.83203125,-32.2265625,-66.40625
125.51171875,-38.57421875,-29.296875,-30.2734375,-75.1953125
125.515625,-48.828125,-28.80859375,-26.3671875,-31.25
125.51953125,-53.22265625,-27.34375,-31.25,-16.11328125
125.5234375,-44.43359375,-27.83203125,-35.15625,-56.15234375
125.52734375,-51.26953125,-31.73828125,-33.203125,-48.828125
125.53125,-41.015625,-27.83203125,-27.83203125,-31.73828125
125.53515625,-29.78515625,-27.34375,-28.3203125,-46.38671875
125.5390625,-57.12890625,-34.1796875,-33.69140625,-30.76171875
125.54296875,-83.0078125,-34.66796875,-38.0859375,-14.16015625
125.546875,-93.26171875,-35.64453125,-36.62109375,-57.6171875
125.55078125,-26.3671875,-37.109375,-33.203125,-68.359375
125.5546875,14.6484375,-32.71484375,-38.57421875,-53.7109375
125.55859375,-46.875,-31.73828125,-43.45703125,-54.19921875
125.5625,-91.30859375,-34.1796875,-44.43359375,-70.3125
125.56640625,-78.61328125,-41.50390625,-41.015625,-47.8515625
125.5703125,-73.2421875,-38.0859375,-37.109375,-52.24609375
125.57421875,-43.45703125,-26.3671875,-38.0859375,-17.578125
125.578125,-41.015625,-29.296875,-36.1328125,-8.30078125
125.58203125,-83.49609375,-41.9921875,-28.80859375,-81.54296875
125.5859375,-93.75,-40.0390625,-27.34375,-89.35546875
125.58984375,-83.984375,-32.2265625,-34.1796875,-27.34375
125.59375,-78.125,-34.66796875,-33.69140625,5.859375
125.59765625,-80.078125,-34.1796875,-32.71484375,-87.890625
125.6015625,-49.31640625,-38.57421875,-36.62109375,-104.98046875
125.60546875,-62.98828125,-44.43359375,-39.55078125,-83.984375
125.609375,-84.47265625,-40.0390625,-38.0859375,-83.49609375
125.61328125,-66.40625,-35.64453125,-40.52734375,-52.24609375
125.6171875,-65.91796875,-38.0859375,-43.45703125,-51.26953125
125.62109375,-70.80078125,-41.015625,-41.015625,-96.6796875
125.625,-99.12109375,-41.50390625,-47.8515625,-78.125
125.62890625,-91.30859375,-41.015625,-49.31640625,-40.0390625
125.6328125,-38.0859375,-41.9921875,-47.8515625,-52.24609375
125.63671875,-41.9921875,-43.9453125,-45.8984375,-78.61328125
125.640625,-91.796875,-37.59765625,-41.9921875,-100.09765625
125.64453125,-75.68359375,-31.25,-37.59765625,-45.8984375
125.6484375,-41.015625,-38.57421875,-33.69140625,-20.5078125
125.65234375,-88.8671875,-37.109375,-34.1796875,-84.47265625
125.65625,-72.265625,-30.2734375,-36.62109375,-86.9140625
125.66015625,-34.1796875,-34.66796875,-39.55078125,-62.01171875
125.6640625,-16.11328125,-41.015625,-37.109375,-28.3203125
125.66796875,-12.6953125,-34.1796875,-37.59765625,-43.9453125
125.671875,-51.7578125,-30.2734375,-38.0859375,-73.73046875
125.67578125,-53.7109375,-35.15625,-35.64453125,-57.12890625
125.6796875,-48.828125,-33.203125,-30.76171875,-50.78125
125.68359375,-57.6171875,-24.90234375,-28.80859375,-60.05859375
125.6875,-63.4765625,-23.92578125,-31.25,-67.3828125
125.69140625,-39.55078125,-28.3203125,-28.3203125,-39.0625
125.6953125,-48.828125,-30.2734375,-30.76171875,-56.15234375
125.69921875,-60.546875,-30.76171875,-31.25,-73.73046875
125.703125,-50.78125,-40.0390625,-35.15625,-42.96875
125.70703125,-51.7578125,-41.50390625,-40.52734375,-49.31640625
125.7109375,-50.78125,-36.62109375,-35.64453125,-33.203125
125.71484375,-38.0859375,-35.15625,-30.2734375,-9.765625
125.71875,-44.43359375,-37.59765625,-28.80859375,-49.31640625
125.72265625,-50.29296875,-37.109375,-31.25,-60.05859375
125.7265625,-29.296875,-33.203125,-38.57421875,-33.69140625
125.73046875,-54.19921875,-34.66796875,-41.9921875,-34.1796875
125.734375,-64.94140625,-40.52734375,-42.48046875,-58.10546875
125.73828125,-46.875,-44.921875,-36.62109375,-26.85546875
125.7421875,-54.19921875,-45.41015625,-32.2265625,-36.62109375
125.74609375,-43.9453125,-41.50390625,-30.2734375,-48.828125
125.75,-54.19921875,-38.0859375,-26.85546875,-25.87890625
125.75390625,-65.4296875,-36.1328125,-29.78515625,-45.41015625
125.7578125,-61.5234375,-36.1328125,-32.2265625,-67.3828125
125.76171875,-76.66015625,-43.45703125,-37.109375,-82.03125
125.765625,-76.171875,-50.29296875,-41.9921875,-89.35546875
125.76953125,-68.359375,-48.33984375,-40.52734375,-45.41015625
125.7734375,-68.84765625,-39.55078125,-35.15625,-37.109375
125.77734375,-65.91796875,-39.0625,-35.15625,-53.22265625
125.78125,-55.6640625,-41.50390625,-34.66796875,-38.57421875
125.78515625,-49.31640625,-39.0625,-37.59765625,-56.15234375
125.7890625,-67.87109375,-37.109375,-38.57421875,-58.59375
125.79296875,-73.73046875,-39.0625,-37.109375,-30.2734375
125.796875,-39.55078125,-41.50390625,-36.62109375,-22.4609375
125.80078125,-56.640625,-41.50390625,-35.15625,-28.80859375
125.8046875,-67.87109375,-44.921875,-35.15625,-47.8515625
125.80859375,-65.91796875,-47.36328125,-40.0390625,-65.4296875
125.8125,-68.84765625,-46.875,-46.38671875,-42.48046875
125.81640625,-75.68359375,-47.8515625,-43.9453125,-61.5234375
125.8203125,-75.68359375,-47.36328125,-39.0625,-83.49609375
125.82421875,-63.4765625,-46.38671875,-38.57421875,-57.12890625
125.828125,-43.45703125,-46.38671875,-39.55078125,-30.2734375
125.83203125,-88.8671875,-44.921875,-40.52734375,-62.01171875
125.8359375,-96.6796875,-45.8984375,-48.828125,-84.47265625
125.83984375,-34.1796875,-55.17578125,-51.7578125,-51.7578125
125.84375,-38.57421875,-61.5234375,-53.22265625,-20.99609375
125.84765625,-56.15234375,-60.05859375,-57.6171875,-59.08203125
125.8515625,-61.03515625,-54.19921875,-49.31640625,-96.6796875
125.85546875,-57.6171875,-52.24609375,-44.43359375,-80.56640625
125.859375,-48.33984375,-53.7109375,-58.59375,-67.3828125
125.86328125,-52.734375,-50.78125,-69.3359375,-63.96484375
125.8671875,-70.80078125,-54.19921875,-64.453125,-73.73046875
125.87109375,-69.3359375,-54.19921875,-58.10546875,-86.9140625
125.875,-64.453125,-48.828125,-47.36328125,-74.70703125
125.87890625,-62.01171875,-51.7578125,-43.9453125,-54.6875
125.8828125,-65.91796875,-53.7109375,-49.8046875,-82.51953125
125.88671875,-79.58984375,-55.6640625,-54.6875,-63.96484375
125.890625,-71.77734375,-53.7109375,-52.734375,-62.98828125
125.89453125,-45.8984375,-47.36328125,-55.6640625,-67.87109375
125.8984375,-45.8984375,-51.26953125,-56.15234375,-38.57421875
125.90234375,-73.73046875,-50.78125,-50.78125,-88.8671875
125.90625,-51.7578125,-51.7578125,-53.22265625,-117.1875
125.91015625,-33.69140625,-52.734375,-54.19921875,-97.65625
125.9140625,-55.17578125,-49.31640625,-52.734375,-52.734375
125.91796875,-48.33984375,-49.8046875,-51.7578125,-61.5234375
125.921875,-63.96484375,-50.29296875,-58.59375,-100.09765625
125.92578125,-64.453125,-47.8515625,-60.05859375,-68.84765625
125.9296875,-42.48046875,-50.29296875,-60.05859375,-69.82421875
125.93359375,-88.37890625,-60.546875,-67.3828125,-76.66015625
125.9375,-60.546875,-59.5703125,-63.4765625,-65.91796875
125.94140625,-74.21875,-53.7109375,-65.91796875,-81.54296875
125.9453125,-114.2578125,-55.17578125,-69.3359375,-79.1015625
125.94921875,-38.0859375,-50.78125,-59.08203125,-64.94140625
125.953125,-38.57421875,-43.9453125,-58.10546875,-49.31640625
125.95703125,-39.0625,-44.921875,-52.734375,-57.12890625
125.9609375,-22.94921875,-46.875,-49.31640625,-82.03125
125.96484375,-57.12890625,-41.015625,-44.43359375,-60.05859375
125.96875,-91.30859375,-38.0859375,-42.48046875,-47.36328125
125.97265625,-58.59375,-43.9453125,-48.828125,-58.59375
125.9765625,-39.55078125,-44.921875,-52.24609375,-38.57421875
125.98046875,-32.71484375,-42.48046875,-53.7109375,-20.5078125
125.984375,-49.8046875,-41.9921875,-53.7109375,-41.015625
125.98828125,-61.5234375,-45.8984375,-52.734375,-53.7109375
125.9921875,-54.19921875,-50.78125,-53.7109375,-49.31640625
125.99609375,-70.3125,-52.24609375,-54.6875,-44.43359375
126.0,-74.21875,-51.26953125,-54.6875,-82.51953125
126.00390625,-71.2890625,-44.921875,-53.7109375,-84.9609375
126.0078125,-66.89453125,-43.45703125,-51.26953125,-84.9609375
126.01171875,-60.05859375,-40.52734375,-49.8046875,-69.82421875
126.015625,-60.546875,-43.45703125,-51.26953125,-38.0859375
126.01953125,-65.91796875,-47.8515625,-45.8984375,-54.6875
126.0234375,-57.12890625,-39.55078125,-41.9921875,-54.19921875
126.02734375,-42.48046875,-36.62109375,-45.41015625,-47.36328125
126.03125,-63.4765625,-38.0859375,-41.50390625,-37.59765625
126.03515625,-75.68359375,-40.52734375,-39.55078125,-43.9453125
126.0390625,-43.9453125,-39.0625,-34.1796875,-2.44140625
126.04296875,-46.38671875,-37.109375,-33.69140625,-35.15625
126.046875,-47.8515625,-33.69140625,-36.62109375,-100.09765625
126.05078125,-46.38671875,-25.87890625,-34.1796875,-49.8046875
126.0546875,-42.96875,-25.390625,-32.71484375,-66.40625
126.05859375,-35.64453125,-30.76171875,-29.296875,-27.34375
126.0625,-50.29296875,-30.76171875,-37.59765625,-15.13671875
126.06640625,-62.5,-30.2734375,-41.015625,-61.5234375
126.0703125,-54.19921875,-33.69140625,-41.015625,-18.06640625
126.07421875,-35.64453125,-38.0859375,-45.41015625,-24.90234375
126.078125,-0.48828125,-34.1796875,-39.0625,8.30078125
126.08203125,-22.4609375,-28.80859375,-35.15625,18.5546875
126.0859375,-33.203125,-32.2265625,-38.57421875,-53.7109375
126.08984375,-20.01953125,-36.62109375,-41.9921875,-74.70703125
126.09375,-77.1484375,-32.2265625,-45.41015625,-86.42578125
126.09765625,-85.44921875,-31.25,-46.875,-60.546875
126.1015625,-57.6171875,-33.203125,-46.38671875,-42.48046875
126.10546875,-54.6875,-36.1328125,-43.9453125,-64.453125
126.109375,-73.73046875,-32.71484375,-45.41015625,-85.9375
126.11328125,-35.64453125,-28.3203125,-47.8515625,-65.91796875
126.1171875,-3.90625,-33.203125,-39.0625,14.6484375
126.12109375,-10.7421875,-29.78515625,-41.9921875,-8.7890625
126.125,-26.3671875,-27.83203125,-48.33984375,-53.22265625
126.12890625,-50.29296875,-32.71484375,-46.38671875,-31.73828125
126.1328125,-75.68359375,-32.2265625,-42.96875,-60.546875
126.13671875,-61.03515625,-32.71484375,-40.52734375,-78.61328125
126.140625,-40.52734375,-29.296875,-44.921875,-63.96484375
126.14453125,-56.640625,-27.34375,-41.50390625,-43.9453125
126.1484375,-58.59375,-32.71484375,-38.57421875,-58.59375
126.15234375,-45.41015625,-36.1328125,-43.45703125,-61.03515625
126.15625,-61.03515625,-35.64453125,-40.52734375,-61.5234375
126.16015625,-62.5,-28.80859375,-35.64453125,-23.4375
126.1640625,-75.68359375,-29.296875,-42.48046875,-23.4375
126.16796875,-88.8671875,-35.15625,-47.8515625,-52.734375
126.171875,-53.22265625,-34.1796875,-40.52734375,-46.38671875
126.17578125,-16.11328125,-35.64453125,-42.96875,-88.8671875
126.1796875,-60.546875,-41.015625,-47.36328125,-78.61328125
126.18359375,-91.30859375,-41.50390625,-41.9921875,-26.85546875
126.1875,-78.61328125,-35.64453125,-50.78125,-69.3359375
126.19140625,-50.78125,-33.69140625,-55.6640625,-55.6640625
126.1953125,-63.96484375,-33.69140625,-51.7578125,-44.921875
126.19921875,-64.453125,-30.76171875,-47.8515625,-46.875
126.203125,-55.17578125,-35.15625,-45.8984375,-46.875
126.20703125,-69.3359375,-34.66796875,-49.8046875,-63.96484375
126.2109375,-63.96484375,-31.73828125,-47.36328125,-49.8046875
126.21484375,-59.5703125,-30.2734375,-38.57421875,-57.6171875
126.21875,-57.12890625,-34.66796875,-45.41015625,-63.96484375
126.22265625,-67.3828125,-35.15625,-45.41015625,-56.640625
126.2265625,-48.33984375,-32.2265625,-34.66796875,-54.6875
126.23046875,-32.71484375,-34.1796875,-39.0625,-23.4375
126.234375,-21.484375,-33.203125,-41.015625,16.11328125
126.23828125,-54.6875,-36.1328125,-38.57421875,-45.8984375
126.2421875,-70.3125,-38.57421875,-40.0390625,-80.56640625
126.24609375,-50.29296875,-38.57421875,-48.33984375,-58.59375
126.25,-59.08203125,-39.0625,-47.36328125,-46.38671875
126.25390625,-79.1015625,-33.69140625,-42.48046875,-86.9140625
126.2578125,-59.5703125,-32.71484375,-47.36328125,-69.3359375
126.26171875,-89.35546875,-35.64453125,-45.41015625,-35.64453125
126.265625,-103.515625,-33.69140625,-40.52734375,-53.7109375
126.26953125,-28.80859375,-36.62109375,-40.52734375,-47.8515625
126.2734375,-33.69140625,-30.2734375,-36.1328125,-7.8125
126.27734375,-55.6640625,-30.76171875,-40.0390625,-20.99609375
126.28125,-54.6875,-37.59765625,-46.38671875,-44.43359375
126.28515625,-57.12890625,-35.64453125,-47.8515625,-79.58984375
126.2890625,-47.8515625,-33.203125,-43.9453125,-48.828125
126.29296875,-29.296875,-31.25,-41.015625,-6.8359375
126.296875,-44.43359375,-31.25,-48.33984375,-57.6171875
126.30078125,-38.0859375,-35.15625,-50.78125,-37.109375
126.3046875,-41.015625,-31.73828125,-45.8984375,-51.7578125
126.30859375,-40.0390625,-36.62109375,-43.9453125,-37.109375
126.3125,-35.64453125,-44.43359375,-47.36328125,-17.08984375
126.31640625,-63.96484375,-40.0390625,-45.41015625,-89.84375
126.3203125,-35.64453125,-40.0390625,-48.828125,-91.30859375
126.32421875,-53.7109375,-44.43359375,-54.6875,-72.265625
126.328125,-77.1484375,-43.9453125,-54.19921875,-37.109375
126.33203125,-71.2890625,-46.875,-53.22265625,-43.45703125
126.3359375,-61.03515625,-47.8515625,-47.36328125,-28.80859375
126.33984375,-21.484375,-51.26953125,-39.0625,-17.08984375
126.34375,-27.83203125,-49.8046875,-49.31640625,-57.6171875
126.34765625,-55.17578125,-43.45703125,-54.19921875,-5.37109375
126.3515625,-53.7109375,-41.9921875,-50.29296875,-42.48046875
126.35546875,-77.1484375,-38.57421875,-54.19921875,-107.91015625
126.359375,-58.10546875,-36.1328125,-49.8046875,-81.54296875
126.36328125,-20.99609375,-37.59765625,-49.8046875,-76.66015625
126.3671875,-41.50390625,-41.015625,-57.12890625,-63.4765625
126.37109375,-72.265625,-39.55078125,-59.08203125,-63.4765625
126.375,-57.6171875,-37.109375,-52.734375,-38.0859375
126.37890625,-44.43359375,-31.73828125,-49.8046875,-31.25
126.3828125,-59.08203125,-30.2734375,-54.19921875,-65.4296875
126.38671875,-72.265625,-35.15625,-55.17578125,-88.37890625
126.390625,-63.96484375,-40.0390625,-48.33984375,-63.96484375
126.39453125,-48.33984375,-36.62109375,-42.96875,-31.73828125
126.3984375,-31.25,-33.203125,-43.9453125,-59.5703125
126.40234375,-56.640625,-33.203125,-44.921875,-9.765625
126.40625,-13.18359375,-36.62109375,-53.22265625,-19.04296875
126.41015625,-5.37109375,-42.96875,-52.24609375,-117.1875
126.4140625,-75.1953125,-49.8046875,-50.29296875,-73.73046875
126.41796875,-46.875,-51.7578125,-50.29296875,-37.59765625
126.421875,-50.78125,-48.33984375,-45.8984375,-53.22265625
126.42578125,-52.24609375,-42.96875,-47.8515625,-86.9140625
126.4296875,-77.1484375,-39.55078125,-45.41015625,-93.26171875
126.43359375,-63.96484375,-39.0625,-48.33984375,-59.08203125
126.4375,-67.87109375,-43.45703125,-55.6640625,-56.15234375
126.44140625,-95.21484375,-42.48046875,-59.08203125,-47.8515625
126.4453125,-66.89453125,-41.50390625,-52.734375,-47.8515625
126.44921875,-40.0390625,-46.875,-53.22265625,-28.80859375
126.453125,-9.765625,-45.41015625,-57.6171875,-2.9296875
126.45703125,-31.73828125,-47.36328125,-52.734375,-29.296875
126.4609375,-103.02734375,-55.17578125,-50.29296875,-69.82421875
126.46484375,-91.30859375,-47.8515625,-50.29296875,-52.24609375
126.46875,-32.71484375,-37.59765625,-44.43359375,-27.34375
126.47265625,-46.875,-40.0390625,-45.8984375,-79.1015625
126.4765625,-80.56640625,-44.43359375,-41.50390625,-68.84765625
126.48046875,-52.24609375,-47.36328125,-41.50390625,-14.6484375
126.484375,-45.41015625,-44.43359375,-51.26953125,-48.828125
126.48828125,-63.4765625,-44.43359375,-53.22265625,-100.5859375
126.4921875,-74.70703125,-49.31640625,-54.19921875,-51.7578125
126.49609375,-55.17578125,-49.8046875,-52.734375,-16.11328125
126.5,-59.08203125,-48.33984375,-52.734375,-61.5234375
126.50390625,-92.7734375,-46.875,-55.6640625,-90.8203125
126.5078125,-80.078125,-50.29296875,-52.734375,-71.77734375
126.51171875,-83.0078125,-48.828125,-52.24609375,-75.68359375
126.515625,-79.1015625,-45.41015625,-50.29296875,-69.82421875
126.51953125,-88.8671875,-49.31640625,-53.22265625,-73.2421875
126.5234375,-88.8671875,-54.6875,-59.5703125,-72.75390625
126.52734375,-87.40234375,-54.6875,-59.5703125,-79.58984375
126.53125,-98.14453125,-54.19921875,-60.05859375,-78.61328125
126.53515625,-85.44921875,-57.12890625,-63.4765625,-46.38671875
126.5390625,-58.10546875,-51.7578125,-62.98828125,-57.6171875
126.54296875,-60.546875,-51.26953125,-55.17578125,-44.921875
126.546875,-66.40625,-58.10546875,-60.546875,-10.25390625
126.55078125,-57.6171875,-58.59375,-64.94140625,-56.15234375
126.5546875,-61.03515625,-59.08203125,-64.94140625,-85.44921875
126.55859375,-77.1484375,-57.6171875,-61.03515625,-92.28515625
126.5625,-83.984375,-54.19921875,-58.59375,-79.58984375
126.56640625,-78.125,-49.31640625,-52.734375,-46.38671875
126.5703125,-77.1484375,-49.8046875,-51.26953125,-52.24609375
126.57421875,-66.40625,-52.734375,-51.26953125,-57.6171875
126.578125,-58.10546875,-50.78125,-55.6640625,-53.7109375
126.58203125,-62.01171875,-49.31640625,-62.5,-47.8515625
126.5859375,-67.87109375,-53.7109375,-56.640625,-32.71484375
126.58984375,-85.9375,-57.12890625,-54.6875,-38.0859375
126.59375,-99.609375,-51.7578125,-57.6171875,-90.33203125
126.59765625,-63.96484375,-47.8515625,-57.12890625,-80.56640625
126.6015625,-41.50390625,-46.875,-57.12890625,-36.1328125
126.60546875,-88.8671875,-51.26953125,-59.5703125,-52.734375
126.609375,-73.73046875,-54.19921875,-51.26953125,-62.01171875
126.61328125,-49.31640625,-52.24609375,-54.19921875,-58.59375
126.6171875,-54.19921875,-52.24609375,-54.6875,-59.08203125
126.62109375,-45.8984375,-50.29296875,-55.6640625,-60.546875
126.625,-84.47265625,-49.8046875,-63.96484375,-101.07421875
126.62890625,-99.609375,-51.26953125,-53.7109375,-89.84375
126.6328125,-53.22265625,-46.38671875,-41.9921875,-48.828125
126.63671875,-46.875,-40.0390625,-48.33984375,-64.453125
126.640625,-57.12890625,-39.55078125,-48.828125,-80.56640625
126.64453125,-65.4296875,-41.015625,-50.78125,-62.98828125
126.6484375,-67.3828125,-34.66796875,-49.31640625,-53.22265625
126.65234375,-57.6171875,-35.64453125,-48.33984375,-58.10546875
126.65625,-66.40625,-44.921875,-52.24609375,-64.453125
126.66015625,-81.54296875,-43.45703125,-45.8984375,-48.828125
126.6640625,-68.359375,-40.52734375,-41.50390625,-33.203125
126.66796875,-65.4296875,-44.921875,-49.8046875,-40.0390625
126.671875,-78.61328125,-45.8984375,-55.17578125,-76.171875
126.67578125,-82.51953125,-44.921875,-48.33984375,-83.49609375
126.6796875,-40.0390625,-44.43359375,-50.29296875,-41.9921875
126.68359375,-29.296875,-39.0625,-52.24609375,-28.80859375
126.6875,-45.8984375,-40.52734375,-46.875,-33.69140625
126.69140625,-56.640625,-39.55078125,-43.45703125,-33.203125
126.6953125,-62.5,-38.57421875,-47.36328125,-34.66796875
126.69921875,-78.125,-42.48046875,-55.17578125,-37.109375
126.703125,-52.734375,-47.8515625,-53.7109375,-36.62109375
126.70703125,-33.203125,-50.29296875,-50.78125,-57.12890625
126.7109375,-73.73046875,-41.50390625,-46.875,-29.78515625
126.71484375,-50.78125,-35.64453125,-36.62109375,-15.625
126.71875,-23.92578125,-33.203125,-34.1796875,-67.3828125
126.72265625,-56.15234375,-31.25,-42.48046875,-71.77734375
126.7265625,-73.2421875,-34.66796875,-49.8046875,-59.08203125
126.73046875,-58.59375,-41.50390625,-49.31640625,-55.6640625
126.734375,-57.12890625,-41.015625,-49.31640625,-54.6875
126.73828125,-48.33984375,-36.62109375,-46.38671875,-48.828125
126.7421875,-41.015625,-36.1328125,-45.8984375,-43.9453125
126.74609375,-44.921875,-35.64453125,-48.828125,-40.52734375
126.75,-55.17578125,-36.62109375,-44.921875,5.859375
126.75390625,-52.734375,-41.9921875,-41.015625,-23.92578125
126.7578125,-52.24609375,-37.59765625,-46.38671875,-96.19140625
126.76171875,-63.96484375,-34.1796875,-47.8515625,-60.05859375
126.765625,-31.73828125,-33.69140625,-44.921875,-41.50390625
126.76953125,-41.9921875,-37.109375,-48.33984375,-54.19921875
126.7734375,-78.61328125,-43.45703125,-49.8046875,-63.4765625
126.77734375,-47.8515625,-38.0859375,-46.875,-30.2734375
126.78125,-34.1796875,-38.0859375,-45.8984375,-27.83203125
126.78515625,-43.45703125,-44.43359375,-46.875,-35.64453125
126.7890625,-35.15625,-46.38671875,-46.38671875,-36.62109375
126.79296875,-14.6484375,-47.8515625,-41.9921875,-42.48046875
126.796875,-33.69140625,-43.45703125,-46.875,-46.38671875
126.80078125,-66.40625,-40.52734375,-53.22265625,-84.47265625
126.8046875,-96.19140625,-39.0625,-58.10546875,-108.88671875
126.80859375,-78.125,-36.1328125,-60.05859375,-75.68359375
126.8125,-41.015625,-34.66796875,-53.22265625,-27.83203125
126.81640625,-59.08203125,-35.64453125,-52.734375,-39.55078125
126.8203125,-49.8046875,-38.0859375,-58.59375,-35.64453125
126.82421875,-59.08203125,-39.55078125,-60.05859375,-51.7578125
126.828125,-55.17578125,-42.96875,-50.29296875,-64.453125
126.83203125,-68.84765625,-41.50390625,-49.8046875,-42.96875
126.8359375,-77.1484375,-42.48046875,-59.08203125,-86.9140625
126.83984375,-49.8046875,-40.52734375,-59.08203125,-68.84765625
126.84375,-38.57421875,-36.1328125,-55.6640625,-28.80859375
126.84765625,-43.9453125,-35.64453125,-52.734375,-75.1953125
126.8515625,-35.64453125,-39.0625,-52.24609375,-72.265625
126.85546875,-9.27734375,-40.0390625,-48.33984375,-13.671875
126.859375,-50.29296875,-39.0625,-44.921875,-26.85546875
126.86328125,-61.5234375,-40.52734375,-50.29296875,-86.9140625
126.8671875,-57.6171875,-43.9453125,-55.6640625,-61.03515625
126.87109375,-57.6171875,-45.41015625,-61.03515625,-83.49609375
126.875,-68.359375,-43.45703125,-59.08203125,-99.609375
126.87890625,-43.9453125,-48.33984375,-49.31640625,-60.05859375
126.8828125,-24.90234375,-47.8515625,-51.26953125,-81.0546875
126.88671875,-28.80859375,-45.41015625,-54.19921875,-54.19921875
126.890625,-28.80859375,-43.9453125,-53.22265625,-33.203125
126.89453125,-62.01171875,-46.875,-51.7578125,-76.66015625
126.8984375,-61.03515625,-54.19921875,-55.6640625,-70.80078125
126.90234375,-65.91796875,-54.6875,-58.59375,-80.078125
126.90625,-62.01171875,-50.29296875,-53.22265625,-58.59375
126.91015625,-34.1796875,-45.8984375,-50.78125,-63.4765625
126.9140625,-56.640625,-41.50390625,-50.29296875,-49.31640625
126.91796875,-64.453125,-41.9921875,-47.36328125,-34.1796875
126.921875,-28.3203125,-44.43359375,-51.26953125,-109.375
126.92578125,-35.15625,-46.875,-51.26953125,-103.02734375
126.9296875,-43.45703125,-50.78125,-48.33984375,-85.9375
126.93359375,-44.43359375,-48.828125,-45.8984375,-69.3359375
126.9375,-9.27734375,-41.015625,-39.55078125,-10.25390625
126.94140625,-10.7421875,-40.0390625,-39.55078125,-10.25390625
126.9453125,-65.91796875,-36.1328125,-45.8984375,-72.75390625
126.94921875,-77.1484375,-35.64453125,-39.55078125,-91.796875
126.953125,-71.2890625,-42.48046875,-33.203125,-81.0546875
126.95703125,-31.73828125,-40.0390625,-35.15625,-59.5703125
126.9609375,-23.92578125,-32.2265625,-39.0625,-41.9921875
126.96484375,-62.01171875,-30.2734375,-46.38671875,-58.59375
126.96875,-71.2890625,-34.66796875,-47.36328125,-63.4765625
126.97265625,-70.80078125,-34.66796875,-46.875,-76.66015625
126.9765625,-49.8046875,-37.109375,-42.96875,-77.1484375
126.98046875,-49.31640625,-37.109375,-38.0859375,-47.8515625
126.984375,-65.91796875,-32.71484375,-41.50390625,-64.453125
126.98828125,-61.5234375,-37.109375,-44.43359375,-80.078125
126.9921875,-52.24609375,-37.59765625,-40.52734375,-62.01171875
126.99609375,-59.08203125,-36.1328125,-41.015625,-32.71484375
127.0,-45.8984375,-37.59765625,-47.8515625,-20.99609375
127.00390625,-66.89453125,-37.59765625,-52.24609375,-53.7109375
127.0078125,-80.56640625,-34.1796875,-49.8046875,-69.82421875
127.01171875,-47.36328125,-29.78515625,-41.50390625,-37.59765625
127.015625,-41.015625,-26.85546875,-37.109375,-12.6953125
127.01953125,-34.1796875,-28.3203125,-34.66796875,-56.15234375
127.0234375,-58.59375,-33.69140625,-35.64453125,-64.453125
127.02734375,-83.984375,-34.1796875,-38.57421875,-41.9921875
127.03125,-50.29296875,-29.296875,-35.15625,-19.53125
127.03515625,-57.6171875,-30.2734375,-38.0859375,-54.6875
127.0390625,-40.0390625,-36.1328125,-44.43359375,-62.01171875
127.04296875,-29.78515625,-38.0859375,-41.50390625,-35.15625
127.046875,-60.546875,-34.1796875,-43.9453125,-34.1796875
127.05078125,-48.33984375,-32.71484375,-50.29296875,-42.96875
127.0546875,-46.875,-37.109375,-47.36328125,-45.41015625
127.05859375,-50.78125,-43.45703125,-46.875,-63.4765625
127.0625,-39.55078125,-44.43359375,-51.7578125,-71.77734375
127.06640625,-65.91796875,-37.109375,-49.31640625,-30.2734375
127.0703125,-87.890625,-37.109375,-43.45703125,-14.6484375
127.07421875,-65.4296875,-40.52734375,-42.48046875,-50.29296875
127.078125,-72.75390625,-42.96875,-41.50390625,-34.1796875
127.08203125,-53.22265625,-40.0390625,-44.43359375,-47.36328125
127.0859375,-27.34375,-32.71484375,-49.31640625,-69.3359375
127.08984375,-49.8046875,-37.109375,-44.921875,-62.98828125
127.09375,-49.31640625,-44.921875,-40.0390625,-59.5703125
127.09765625,-65.91796875,-47.8515625,-46.38671875,-36.1328125
127.1015625,-77.1484375,-51.7578125,-53.7109375,-55.6640625
127.10546875,-64.94140625,-54.6875,-48.33984375,-70.3125
127.109375,-61.03515625,-48.828125,-45.8984375,-48.33984375
127.11328125,-51.7578125,-43.45703125,-51.7578125,-51.7578125
127.1171875,-57.6171875,-47.36328125,-54.6875,-51.26953125
127.12109375,-70.80078125,-45.41015625,-54.6875,-65.91796875
127.125,-72.265625,-42.96875,-46.38671875,-44.43359375
127.12890625,-73.2421875,-41.50390625,-40.0390625,-32.2265625
127.1328125,-47.36328125,-38.0859375,-42.96875,-67.87109375
127.13671875,-46.38671875,-38.0859375,-43.9453125,-41.50390625
127.140625,-71.77734375,-29.78515625,-45.41015625,-31.73828125
127.14453125,-54.19921875,-28.80859375,-41.50390625,-62.5
127.1484375,-31.25,-40.0390625,-39.0625,-45.8984375
127.15234375,-44.43359375,-31.25,-38.57421875,-39.0625
127.15625,-63.96484375,-25.87890625,-41.015625,-66.89453125
127.16015625,-59.5703125,-35.64453125,-45.8984375,-62.98828125
127.1640625,-48.828125,-41.9921875,-45.8984375,-50.29296875
127.16796875,-54.6875,-44.43359375,-50.29296875,-59.5703125
127.171875,-32.2265625,-43.9453125,-51.26953125,-23.4375
127.17578125,-39.55078125,-41.50390625,-44.921875,-16.11328125
127.1796875,-47.8515625,-38.57421875,-44.921875,-59.08203125
127.18359375,-28.80859375,-36.62109375,-48.828125,-62.98828125
127.1875,-58.59375,-38.57421875,-42.96875,-64.453125
127.19140625,-36.62109375,-37.59765625,-36.62109375,-63.4765625
127.1953125,-36.62109375,-34.66796875,-42.48046875,-68.359375
127.19921875,-28.3203125,-39.0625,-48.828125,2.44140625
127.203125,7.8125,-37.59765625,-42.48046875,13.18359375
127.20703125,-47.36328125,-35.15625,-42.96875,-67.3828125
127.2109375,-48.33984375,-39.0625,-45.8984375,-52.734375
127.21484375,-39.55078125,-36.62109375,-47.36328125,-61.5234375
127.21875,-54.19921875,-37.59765625,-46.875,-48.828125
127.22265625,-48.828125,-42.96875,-47.8515625,-43.9453125
127.2265625,-38.57421875,-44.921875,-54.19921875,-81.54296875
127.23046875,-62.5,-43.9453125,-51.7578125,-83.49609375
127.234375,-64.453125,-41.50390625,-50.29296875,-62.98828125
127.23828125,-38.57421875,-36.62109375,-49.31640625,-40.52734375
127.2421875,-50.78125,-37.59765625,-49.8046875,-48.33984375
127.24609375,-60.546875,-43.45703125,-52.734375,-72.75390625
127.25,-42.48046875,-44.43359375,-45.8984375,-19.53125
127.25390625,-32.2265625,-40.0390625,-43.45703125,-20.5078125
127.2578125,-44.43359375,-38.0859375,-45.8984375,-68.359375
127.26171875,-42.96875,-38.0859375,-47.36328125,-70.80078125
127.265625,-53.7109375,-37.59765625,-39.55078125,-78.61328125
127.26953125,-42.48046875,-35.15625,-35.64453125,-32.71484375
127.2734375,-41.015625,-33.203125,-44.921875,-4.8828125
127.27734375,-38.0859375,-35.64453125,-46.38671875,-49.8046875
127.28125,-52.734375,-44.43359375,-45.41015625,-48.828125
127.28515625,-76.66015625,-49.31640625,-44.921875,-49.8046875
127.2890625,-54.6875,-48.33984375,-41.9921875,-49.31640625
127.29296875,-33.203125,-43.9453125,-43.45703125,-49.8046875
127.296875,-43.45703125,-43.45703125,-52.734375,-38.0859375
127.30078125,-65.4296875,-44.43359375,-57.12890625,-54.6875
127.3046875,-39.0625,-43.9453125,-50.29296875,-34.66796875
127.30859375,-26.3671875,-46.38671875,-47.36328125,-31.73828125
127.3125,-37.109375,-47.36328125,-42.48046875,-56.15234375
127.31640625,-48.33984375,-52.24609375,-41.50390625,-38.0859375
127.3203125,-59.5703125,-51.7578125,-49.31640625,-61.03515625
127.32421875,-59.5703125,-49.31640625,-52.734375,-82.51953125
127.328125,-72.75390625,-44.921875,-56.15234375,-40.0390625
127.33203125,-55.17578125,-35.15625,-58.59375,-8.7890625
127.3359375,-2.9296875,-33.203125,-53.7109375,-31.25
127.33984375,-22.94921875,-39.0625,-39.55078125,-46.38671875
127.34375,-71.2890625,-46.38671875,-38.0859375,-77.63671875
127.34765625,-91.796875,-51.7578125,-44.921875,-48.828125
127.3515625,-85.9375,-50.29296875,-44.921875,-41.015625
127.35546875,-66.40625,-51.7578125,-41.015625,-59.5703125
127.359375,-60.546875,-54.6875,-40.0390625,-50.29296875
127.36328125,-82.03125,-55.6640625,-33.69140625,-34.66796875
127.3671875,-90.8203125,-56.640625,-33.203125,-47.36328125
127.37109375,-92.7734375,-53.7109375,-39.55078125,-60.546875
127.375,-83.0078125,-54.19921875,-38.57421875,-26.3671875
127.37890625,-80.078125,-57.12890625,-43.9453125,-38.0859375
127.3828125,-49.8046875,-58.59375,-48.33984375,-78.125
127.38671875,-46.38671875,-57.6171875,-47.36328125,-43.9453125
127.390625,-104.00390625,-53.22265625,-49.31640625,-43.45703125
127.39453125,-72.75390625,-53.22265625,-44.921875,-63.96484375
127.3984375,-65.4296875,-52.24609375,-47.36328125,-67.87109375
127.40234375,-81.54296875,-50.29296875,-47.8515625,-50.78125
127.40625,-72.75390625,-44.921875,-46.38671875,-47.36328125
127.41015625,-62.98828125,-42.48046875,-46.875,-59.5703125
127.4140625,-80.56640625,-49.8046875,-47.8515625,-44.43359375
127.41796875,-85.44921875,-51.7578125,-46.38671875,-38.57421875
127.421875,-53.22265625,-41.50390625,-46.38671875,-71.2890625
127.42578125,-48.828125,-39.55078125,-49.31640625,-25.390625
127.4296875,-73.73046875,-45.41015625,-54.6875,15.625
127.43359375,-50.78125,-48.33984375,-56.640625,-49.8046875
127.4375,-50.78125,-50.29296875,-50.29296875,-47.36328125
127.44140625,-88.8671875,-45.8984375,-47.36328125,-44.921875
127.4453125,-95.703125,-40.0390625,-48.828125,-73.73046875
127.44921875,-110.3515625,-39.55078125,-54.6875,-50.78125
127.453125,-103.515625,-41.015625,-56.15234375,-58.10546875
127.45703125,-103.02734375,-39.55078125,-50.78125,-46.38671875
127.4609375,-90.8203125,-40.0390625,-50.78125,-27.34375
127.46484375,-59.08203125,-40.0390625,-50.29296875,-41.015625
127.46875,-82.51953125,-38.0859375,-52.24609375,-41.015625
127.47265625,-64.94140625,-36.62109375,-51.26953125,-15.625
127.4765625,-65.4296875,-41.015625,-48.33984375,-18.06640625
127.48046875,-64.453125,-46.38671875,-52.734375,-23.92578125
127.484375,-63.4765625,-52.24609375,-51.26953125,-60.546875
127.48828125,-96.19140625,-51.7578125,-53.22265625,-83.0078125
127.4921875,-100.5859375,-45.8984375,-53.7109375,-71.77734375
127.49609375,-99.12109375,-44.43359375,-47.8515625,-70.80078125
127.5,-97.65625,-48.33984375,-49.31640625,-40.0390625
127.50390625,-106.93359375,-51.7578125,-51.7578125,-86.42578125
127.5078125,-95.21484375,-53.22265625,-57.12890625,-102.5390625
127.51171875,-97.65625,-49.8046875,-57.6171875,-9.27734375
127.515625,-104.98046875,-44.43359375,-52.24609375,-30.76171875
127.51953125,-69.3359375,-44.43359375,-49.8046875,-30.76171875
127.5234375,-49.8046875,-43.9453125,-45.41015625,-14.6484375
127.52734375,-73.73046875,-44.43359375,-49.31640625,-71.77734375
127.53125,-77.63671875,-43.9453125,-51.26953125,-62.98828125
127.53515625,-71.2890625,-45.8984375,-51.26953125,-79.58984375
127.5390625,-94.23828125,-42.48046875,-58.59375,-85.9375
127.54296875,-79.1015625,-42.96875,-55.17578125,-62.01171875
127.546875,-55.6640625,-43.9453125,-47.8515625,-60.05859375
127.55078125,-49.8046875,-40.52734375,-49.8046875,-47.8515625
127.5546875,-54.6875,-44.43359375,-50.78125,-30.2734375
127.55859375,-64.94140625,-46.875,-55.17578125,-43.9453125
127.5625,-80.078125,-46.875,-62.5,-57.12890625
127.56640625,-63.4765625,-48.33984375,-55.17578125,-42.48046875
127.5703125,-64.453125,-43.45703125,-53.22265625,-61.03515625
127.57421875,-63.4765625,-46.38671875,-57.12890625,-71.77734375
127.578125,-55.6640625,-56.15234375,-50.29296875,-52.734375
127.58203125,-88.37890625,-54.19921875,-51.26953125,-41.9921875
127.5859375,-74.21875,-51.7578125,-54.6875,-43.45703125
127.58984375,-66.40625,-50.78125,-54.6875,-58.10546875
127.59375,-80.078125,-45.8984375,-54.6875,-88.37890625
127.59765625,-79.58984375,-53.7109375,-62.5,-86.42578125
127.6015625,-83.49609375,-58.59375,-63.4765625,-48.828125
127.60546875,-85.44921875,-60.546875,-63.4765625,-60.546875
127.609375,-75.1953125,-69.3359375,-70.3125,-64.94140625
127.61328125,-102.05078125,-73.2421875,-81.54296875,-72.265625
127.6171875,-91.30859375,-72.75390625,-82.03125,-94.7265625
127.62109375,-81.0546875,-66.40625,-67.3828125,-58.59375
127.625,-117.1875,-66.89453125,-66.40625,-71.2890625
127.62890625,-112.3046875,-72.265625,-72.75390625,-137.6953125
127.6328125,-62.01171875,-72.265625,-72.75390625,-97.65625
127.63671875,-82.03125,-72.75390625,-71.2890625,-65.4296875
127.640625,-91.796875,-71.2890625,-75.68359375,-88.8671875
127.64453125,-96.19140625,-70.3125,-80.078125,-82.03125
127.6484375,-99.609375,-71.77734375,-83.49609375,-60.05859375
127.65234375,-75.1953125,-78.125,-90.33203125,-70.3125
127.65625,-67.87109375,-83.984375,-95.21484375,-79.58984375
127.66015625,-80.078125,-86.9140625,-95.703125,-78.61328125
127.6640625,-86.42578125,-86.9140625,-88.8671875,-81.0546875
127.66796875,-87.40234375,-89.35546875,-90.8203125,-82.03125
127.671875,-109.86328125,-88.8671875,-97.65625,-98.14453125
127.67578125,-134.27734375,-87.890625,-94.7265625,-81.54296875
127.6796875,-116.69921875,-89.35546875,-94.23828125,-118.1640625
127.68359375,-120.1171875,-83.984375,-93.75,-147.94921875
127.6875,-133.30078125,-90.8203125,-92.7734375,-73.73046875
127.69140625,-116.69921875,-95.21484375,-94.7265625,-119.62890625
127.6953125,-92.7734375,-88.8671875,-91.30859375,-148.92578125
127.69921875,-101.07421875,-87.890625,-90.8203125,-110.83984375
127.703125,-125.9765625,-83.984375,-92.28515625,-102.5390625
127.70703125,-105.46875,-79.58984375,-90.33203125,-116.69921875
127.7109375,-106.4453125,-81.0546875,-90.8203125,-106.4453125
127.71484375,-107.91015625,-85.44921875,-89.84375,-95.21484375
127.71875,-96.6796875,-87.890625,-91.796875,-121.58203125
127.72265625,-114.74609375,-88.37890625,-90.8203125,-116.2109375
127.7265625,-121.09375,-86.42578125,-93.26171875,-111.81640625
127.73046875,-117.1875,-86.42578125,-92.7734375,-121.09375
127.734375,-76.66015625,-82.51953125,-88.8671875,-90.8203125
127.73828125,-93.75,-77.1484375,-87.40234375,-79.58984375
127.7421875,-124.0234375,-81.54296875,-86.42578125,-101.07421875
127.74609375,-107.91015625,-85.44921875,-85.9375,-91.30859375
127.75,-125.48828125,-85.9375,-84.9609375,-99.12109375
127.75390625,-123.53515625,-83.0078125,-82.51953125,-86.9140625
127.7578125,-121.58203125,-79.1015625,-85.44921875,-115.72265625
127.76171875,-104.00390625,-76.66015625,-83.0078125,-120.1171875
127.765625,-85.9375,-80.56640625,-79.58984375,-83.49609375
127.76953125,-89.35546875,-81.0546875,-82.03125,-103.02734375
127.7734375,-73.2421875,-72.265625,-75.1953125,-108.88671875
127.77734375,-78.61328125,-73.73046875,-76.171875,-83.984375
127.78125,-100.5859375,-77.1484375,-83.0078125,-104.98046875
127.78515625,-98.14453125,-74.70703125,-80.56640625,-115.234375
127.7890625,-107.91015625,-73.2421875,-81.0546875,-94.23828125
127.79296875,-93.26171875,-71.2890625,-81.54296875,-50.78125
127.796875,-79.58984375,-67.3828125,-71.77734375,-20.99609375
127.80078125,-96.19140625,-66.89453125,-70.80078125,-84.47265625
127.8046875,-104.98046875,-72.265625,-80.078125,-118.1640625
127.80859375,-96.6796875,-76.171875,-75.1953125,-103.02734375
127.8125,-62.5,-74.70703125,-68.359375,-67.87109375
127.81640625,-51.7578125,-73.73046875,-75.1953125,-47.8515625
127.8203125,-77.63671875,-68.359375,-76.66015625,-80.078125
127.82421875,-85.9375,-68.359375,-73.2421875,-79.1015625
127.828125,-109.375,-73.73046875,-78.125,-90.8203125
127.83203125,-104.00390625,-73.2421875,-84.9609375,-88.8671875
127.8359375,-88.8671875,-72.75390625,-92.7734375,-67.87109375
127.83984375,-95.703125,-73.73046875,-90.8203125,-90.8203125
127.84375,-89.84375,-76.171875,-77.63671875,-59.08203125
127.84765625,-87.40234375,-70.3125,-73.73046875,-47.36328125
127.8515625,-84.9609375,-61.03515625,-79.1015625,-85.9375
127.85546875,-89.84375,-65.4296875,-89.84375,-85.9375
127.859375,-64.94140625,-66.89453125,-86.42578125,-41.015625
127.86328125,-63.96484375,-63.4765625,-78.61328125,-56.640625
127.8671875,-91.796875,-63.96484375,-80.078125,-122.0703125
127.87109375,-83.0078125,-62.5,-71.2890625,-114.74609375
127.875,-74.21875,-60.546875,-70.3125,-46.38671875
