Timestamp,TP9,AF7,AF8,TP10
120.015625,-16.11328125,-37.109375,-37.59765625,-37.109375
120.01953125,-34.66796875,-31.73828125,-35.64453125,-49.8046875
120.0234375,-67.87109375,-35.15625,-34.1796875,-40.0390625
120.02734375,-58.59375,-36.62109375,-33.203125,-44.43359375
120.03125,-21.484375,-34.66796875,-36.1328125,-51.26953125
120.03515625,-35.15625,-39.55078125,-39.0625,-23.92578125
120.0390625,-63.4765625,-42.96875,-44.43359375,-24.4140625
120.04296875,-67.3828125,-38.57421875,-44.43359375,-57.12890625
120.046875,-36.1328125,-33.69140625,-39.0625,-50.29296875
120.05078125,-46.38671875,-33.203125,-32.71484375,-47.8515625
120.0546875,-59.08203125,-37.59765625,-32.71484375,-46.38671875
120.05859375,-47.36328125,-41.9921875,-38.0859375,-25.390625
120.0625,-34.1796875,-40.0390625,-37.59765625,-36.1328125
120.06640625,-33.69140625,-37.109375,-37.59765625,-55.17578125
120.0703125,-15.13671875,-40.0390625,-40.52734375,-42.96875
120.07421875,-6.34765625,-41.9921875,-41.9921875,-31.25
120.078125,-50.78125,-42.48046875,-43.9453125,-32.71484375
120.08203125,-48.828125,-39.55078125,-41.015625,-47.36328125
120.0859375,-52.734375,-39.0625,-40.0390625,-51.26953125
120.08984375,-75.1953125,-40.0390625,-40.0390625,-44.43359375
120.09375,-52.734375,-39.0625,-38.57421875,-47.36328125
120.09765625,-50.78125,-41.015625,-37.59765625,-50.29296875
120.1015625,-50.78125,-43.45703125,-38.0859375,-50.78125
120.10546875,-56.15234375,-41.50390625,-42.48046875,-40.52734375
120.109375,-48.33984375,-40.52734375,-40.52734375,-55.17578125
120.11328125,-24.90234375,-38.57421875,-34.1796875,-53.7109375
120.1171875,-18.5546875,-38.57421875,-37.109375,-31.25
120.12109375,-44.921875,-37.109375,-39.0625,-41.015625
120.125,-46.875,-36.62109375,-44.43359375,-25.390625
120.12890625,-29.78515625,-40.52734375,-47.36328125,-16.11328125
120.1328125,-28.3203125,-39.55078125,-37.59765625,-37.59765625
120.13671875,-16.6015625,-36.62109375,-37.109375,-27.34375
120.140625,1.953125,-35.64453125,-39.55078125,-13.671875
120.14453125,-7.32421875,-34.1796875,-39.55078125,-42.96875
120.1484375,-32.71484375,-35.15625,-43.9453125,-41.015625
120.15234375,-36.62109375,-35.64453125,-42.48046875,-27.34375
120.15625,-57.12890625,-35.15625,-40.52734375,-26.3671875
120.16015625,-76.66015625,-34.1796875,-38.57421875,-26.85546875
120.1640625,-62.01171875,-38.57421875,-44.921875,-27.34375
120.16796875,-31.73828125,-35.15625,-45.8984375,-40.0390625
120.171875,-26.85546875,-30.76171875,-38.0859375,-52.24609375
120.17578125,-65.91796875,-40.52734375,-41.015625,-54.19921875
120.1796875,-39.55078125,-39.55078125,-40.0390625,-46.875
120.18359375,9.765625,-33.69140625,-42.48046875,-50.78125
120.1875,1.46484375,-37.109375,-47.8515625,-57.12890625
120.19140625,-37.109375,-41.015625,-44.921875,-52.24609375
120.1953125,-51.7578125,-42.48046875,-45.41015625,-40.0390625
120.19921875,-53.22265625,-41.50390625,-40.52734375,-40.52734375
120.203125,-54.19921875,-42.96875,-40.52734375,-59.08203125
120.20703125,-53.22265625,-39.0625,-43.45703125,-43.45703125
120.2109375,-50.78125,-40.0390625,-42.48046875,-31.25
120.21484375,-25.390625,-40.0390625,-41.50390625,-25.390625
120.21875,-9.27734375,-37.59765625,-43.45703125,-27.83203125
120.22265625,-48.33984375,-42.48046875,-45.41015625,-37.109375
120.2265625,-24.90234375,-46.875,-42.96875,-35.15625
120.23046875,-10.7421875,-43.9453125,-41.50390625,-34.66796875
120.234375,-34.66796875,-44.43359375,-45.8984375,-48.828125
120.23828125,-8.7890625,-41.50390625,-41.9921875,-52.24609375
120.2421875,-38.0859375,-39.55078125,-33.69140625,-45.8984375
120.24609375,-45.41015625,-40.0390625,-38.57421875,-22.4609375
120.25,-21.484375,-39.55078125,-44.43359375,-20.5078125
120.25390625,-43.9453125,-43.45703125,-47.8515625,-46.38671875
120.2578125,-45.8984375,-45.41015625,-48.828125,-27.34375
120.26171875,-31.73828125,-41.015625,-44.43359375,-15.625
120.265625,-29.296875,-42.48046875,-43.9453125,-26.85546875
120.26953125,-3.90625,-41.9921875,-40.52734375,-17.578125
120.2734375,-37.59765625,-41.9921875,-44.921875,-23.92578125
120.27734375,-56.640625,-42.96875,-41.9921875,-49.31640625
120.28125,-24.4140625,-41.50390625,-38.57421875,-50.29296875
120.28515625,-19.04296875,-44.43359375,-42.96875,-43.9453125
120.2890625,-37.59765625,-41.9921875,-43.9453125,-39.55078125
120.29296875,-34.1796875,-39.55078125,-44.43359375,-23.92578125
120.296875,-18.5546875,-40.0390625,-41.9921875,-16.6015625
120.30078125,-17.08984375,-35.15625,-41.9921875,-30.76171875
120.3046875,-41.9921875,-39.0625,-44.921875,-30.76171875
120.30859375,-37.59765625,-41.50390625,-42.48046875,-27.83203125
120.3125,-15.13671875,-41.9921875,-41.50390625,-26.85546875
120.31640625,-35.15625,-45.8984375,-48.33984375,-27.83203125
120.3203125,-22.4609375,-46.875,-51.26953125,-28.80859375
120.32421875,-37.59765625,-45.41015625,-45.8984375,-30.76171875
120.328125,-37.59765625,-41.015625,-41.50390625,-15.625
120.33203125,-10.25390625,-40.52734375,-41.9921875,6.8359375
120.3359375,-29.78515625,-44.43359375,-39.0625,-23.4375
120.33984375,-41.015625,-44.921875,-39.0625,-34.1796875
120.34375,-18.06640625,-43.45703125,-44.43359375,-23.4375
120.34765625,0.48828125,-40.0390625,-42.96875,-30.76171875
120.3515625,-23.92578125,-39.55078125,-39.0625,-60.546875
120.35546875,-13.671875,-44.921875,-44.43359375,-52.24609375
120.359375,-14.6484375,-44.921875,-46.38671875,-46.38671875
120.36328125,-41.50390625,-41.015625,-44.43359375,-37.109375
120.3671875,-61.03515625,-41.50390625,-47.36328125,-20.01953125
120.37109375,-49.8046875,-44.43359375,-49.31640625,-27.34375
120.375,-42.48046875,-41.50390625,-44.43359375,-28.80859375
120.37890625,-35.15625,-39.55078125,-43.45703125,-53.7109375
120.3828125,-20.01953125,-37.109375,-47.8515625,-51.26953125
120.38671875,-35.15625,-38.57421875,-45.8984375,-35.15625
120.390625,-30.76171875,-46.875,-47.8515625,-41.015625
120.39453125,-43.9453125,-43.9453125,-44.921875,-54.6875
120.3984375,-32.71484375,-39.55078125,-42.48046875,-56.640625
120.40234375,-23.4375,-39.0625,-40.52734375,-47.8515625
120.40625,-57.12890625,-35.15625,-34.66796875,-32.71484375
120.41015625,-62.5,-37.109375,-35.15625,-30.2734375
120.4140625,-45.8984375,-41.9921875,-41.50390625,-16.6015625
120.41796875,-3.90625,-43.45703125,-40.52734375,-17.08984375
120.421875,-27.83203125,-42.96875,-33.203125,-23.92578125
120.42578125,-52.734375,-41.50390625,-34.66796875,-24.4140625
120.4296875,-19.04296875,-38.57421875,-38.0859375,-34.66796875
120.43359375,-12.6953125,-39.0625,-38.0859375,-12.6953125
120.4375,-43.9453125,-40.0390625,-32.2265625,7.32421875
120.44140625,-49.31640625,-37.59765625,-35.64453125,-32.71484375
120.4453125,-24.90234375,-41.50390625,-39.55078125,-76.171875
120.44921875,-48.33984375,-44.921875,-35.15625,-52.24609375
120.453125,-53.22265625,-46.875,-37.109375,-54.6875
120.45703125,-53.22265625,-48.828125,-39.55078125,-58.10546875
120.4609375,-43.9453125,-46.875,-41.50390625,-47.36328125
120.46484375,-38.57421875,-42.48046875,-41.50390625,-27.34375
120.46875,-50.78125,-42.48046875,-39.55078125,-44.43359375
120.47265625,-63.96484375,-46.38671875,-45.41015625,-47.8515625
120.4765625,-53.7109375,-41.9921875,-46.875,-39.0625
120.48046875,-50.29296875,-35.15625,-40.52734375,-76.171875
120.484375,-51.7578125,-38.57421875,-45.41015625,-91.796875
120.48828125,-43.45703125,-37.59765625,-43.9453125,-49.31640625
120.4921875,-62.5,-41.015625,-36.1328125,-43.9453125
120.49609375,-74.21875,-45.8984375,-38.57421875,-51.26953125
120.5,-56.15234375,-43.45703125,-36.62109375,-56.15234375
120.50390625,-58.10546875,-41.9921875,-36.1328125,-76.171875
120.5078125,-55.6640625,-41.015625,-36.62109375,-41.9921875
120.51171875,-42.96875,-35.15625,-36.1328125,-39.55078125
120.515625,-67.3828125,-37.109375,-39.0625,-67.87109375
120.51953125,-63.96484375,-39.0625,-35.15625,-46.38671875
120.5234375,-47.36328125,-39.55078125,-35.15625,-59.08203125
120.52734375,-55.6640625,-44.43359375,-37.59765625,-64.94140625
120.53125,-50.78125,-36.62109375,-32.2265625,-31.73828125
120.53515625,-18.06640625,-31.73828125,-32.2265625,-39.55078125
120.5390625,-49.31640625,-41.9921875,-38.0859375,-66.40625
120.54296875,-83.49609375,-42.48046875,-38.57421875,-52.734375
120.546875,-45.8984375,-35.15625,-36.1328125,-58.59375
120.55078125,-39.55078125,-37.59765625,-37.59765625,-50.78125
120.5546875,-48.33984375,-42.48046875,-41.50390625,-42.96875
120.55859375,-55.17578125,-42.48046875,-40.0390625,-36.1328125
120.5625,-50.29296875,-41.015625,-41.9921875,-23.92578125
120.56640625,-28.80859375,-37.109375,-40.0390625,-43.9453125
120.5703125,-40.0390625,-34.1796875,-40.0390625,-50.78125
120.57421875,-44.43359375,-30.76171875,-41.9921875,-67.87109375
120.578125,-45.8984375,-31.73828125,-41.50390625,-63.4765625
120.58203125,-35.15625,-34.1796875,-39.55078125,-51.26953125
120.5859375,-44.921875,-35.15625,-36.1328125,-43.9453125
120.58984375,-43.9453125,-41.015625,-39.0625,-31.73828125
120.59375,-61.03515625,-44.43359375,-40.0390625,-35.15625
120.59765625,-46.875,-39.55078125,-36.62109375,-40.0390625
120.6015625,-30.2734375,-36.62109375,-34.1796875,-35.15625
120.60546875,-31.73828125,-38.0859375,-40.0390625,-55.17578125
120.609375,-48.828125,-37.109375,-41.9921875,-57.12890625
120.61328125,-62.5,-38.57421875,-37.59765625,-51.26953125
120.6171875,-43.9453125,-39.55078125,-39.55078125,-56.15234375
120.62109375,-50.29296875,-36.62109375,-41.50390625,-44.43359375
120.625,-45.8984375,-35.64453125,-38.57421875,-45.8984375
120.62890625,-10.25390625,-35.15625,-37.109375,-45.41015625
120.6328125,-17.08984375,-38.0859375,-40.0390625,-31.25
120.63671875,-41.9921875,-37.59765625,-39.0625,-17.08984375
120.640625,-47.8515625,-34.66796875,-34.66796875,-44.921875
120.64453125,-41.015625,-36.1328125,-34.66796875,-62.01171875
120.6484375,-37.109375,-36.1328125,-34.1796875,-36.1328125
120.65234375,-27.83203125,-40.0390625,-35.64453125,-28.80859375
120.65625,-34.66796875,-42.96875,-39.55078125,-29.78515625
120.66015625,-56.15234375,-39.0625,-41.9921875,-31.25
120.6640625,-44.921875,-38.57421875,-39.55078125,-35.15625
120.66796875,-35.64453125,-38.57421875,-34.66796875,-39.55078125
120.671875,-39.0625,-39.55078125,-36.62109375,-39.55078125
120.67578125,-27.34375,-38.0859375,-33.69140625,-22.94921875
120.6796875,-31.73828125,-38.57421875,-33.203125,-49.31640625
120.68359375,-15.625,-39.0625,-36.1328125,-58.10546875
120.6875,-42.48046875,-39.55078125,-38.0859375,-32.71484375
120.69140625,-61.5234375,-41.015625,-41.015625,-34.1796875
120.6953125,-45.41015625,-38.57421875,-41.50390625,-32.2265625
120.69921875,-29.296875,-36.62109375,-37.109375,-54.6875
120.703125,-45.41015625,-39.55078125,-42.96875,-52.734375
120.70703125,-61.03515625,-40.0390625,-47.8515625,-42.96875
120.7109375,-40.52734375,-39.55078125,-45.8984375,-56.640625
120.71484375,-33.69140625,-35.64453125,-45.8984375,-36.62109375
120.71875,-29.78515625,-33.69140625,-41.015625,-27.34375
120.72265625,-41.015625,-37.109375,-37.59765625,-34.66796875
120.7265625,-62.5,-35.64453125,-38.0859375,-43.45703125
120.73046875,-35.64453125,-36.1328125,-37.109375,-41.9921875
120.734375,-15.625,-40.0390625,-35.64453125,-43.45703125
120.73828125,-48.828125,-39.0625,-34.66796875,-34.1796875
120.7421875,-45.8984375,-39.55078125,-38.0859375,-36.62109375
120.74609375,-15.13671875,-37.59765625,-38.57421875,-50.29296875
120.75,-16.11328125,-38.57421875,-35.15625,-39.55078125
120.75390625,-23.4375,-39.55078125,-35.15625,-33.69140625
120.7578125,-41.9921875,-36.62109375,-33.203125,-40.52734375
120.76171875,-41.50390625,-38.57421875,-32.2265625,-25.87890625
120.765625,-20.01953125,-40.0390625,-34.1796875,-23.4375
120.76953125,-30.76171875,-38.0859375,-32.71484375,-54.6875
120.7734375,-48.828125,-42.96875,-35.15625,-35.15625
120.77734375,-40.52734375,-48.828125,-41.9921875,-40.0390625
120.78125,-18.5546875,-43.45703125,-39.55078125,-48.828125
120.78515625,-6.8359375,-42.96875,-34.66796875,-38.0859375
120.7890625,-40.0390625,-44.43359375,-36.1328125,-25.87890625
120.79296875,-67.87109375,-38.0859375,-38.57421875,-30.76171875
120.796875,-47.36328125,-38.57421875,-33.69140625,-43.9453125
120.80078125,-36.62109375,-43.45703125,-30.2734375,-45.41015625
120.8046875,-85.44921875,-46.38671875,-33.203125,-56.640625
120.80859375,-70.80078125,-41.50390625,-34.1796875,-67.3828125
120.8125,-42.48046875,-39.0625,-34.1796875,-66.40625
120.81640625,-23.92578125,-38.0859375,-30.76171875,-56.15234375
120.8203125,-18.5546875,-41.015625,-27.34375,-40.0390625
120.82421875,-59.5703125,-39.55078125,-27.34375,-28.80859375
120.828125,-63.4765625,-36.1328125,-25.87890625,-46.875
120.83203125,-37.109375,-37.109375,-33.203125,-44.43359375
120.8359375,-40.52734375,-39.55078125,-39.0625,-29.78515625
120.83984375,-53.7109375,-37.59765625,-34.1796875,-32.71484375
120.84375,-31.25,-34.1796875,-33.69140625,-24.90234375
120.84765625,-29.78515625,-34.66796875,-35.15625,-34.1796875
120.8515625,-47.36328125,-34.66796875,-33.69140625,-36.62109375
120.85546875,-52.734375,-34.1796875,-31.73828125,-8.7890625
120.859375,-42.96875,-39.0625,-32.2265625,-32.71484375
120.86328125,-12.6953125,-39.55078125,-34.1796875,-20.99609375
120.8671875,-7.8125,-38.0859375,-32.2265625,-7.32421875
120.87109375,-21.97265625,-38.0859375,-33.203125,-31.73828125
120.875,-16.6015625,-40.0390625,-38.57421875,-40.52734375
120.87890625,-28.80859375,-42.96875,-37.109375,-51.26953125
120.8828125,-45.8984375,-42.96875,-33.69140625,-45.8984375
120.88671875,-44.43359375,-39.55078125,-30.76171875,-32.71484375
120.890625,-64.94140625,-40.52734375,-30.76171875,-37.109375
120.89453125,-41.9921875,-39.0625,-31.25,-41.50390625
120.8984375,-6.34765625,-39.55078125,-33.203125,-54.6875
120.90234375,-13.18359375,-41.015625,-34.66796875,-52.734375
120.90625,-26.85546875,-39.0625,-31.73828125,-28.80859375
120.91015625,-40.0390625,-40.0390625,-36.62109375,-27.34375
120.9140625,-28.3203125,-43.9453125,-41.50390625,-18.06640625
120.91796875,-1.953125,-41.015625,-39.0625,-25.390625
120.921875,-9.765625,-34.66796875,-34.66796875,-48.828125
120.92578125,-31.25,-36.1328125,-35.64453125,-50.78125
120.9296875,-20.5078125,-38.0859375,-34.66796875,-39.0625
120.93359375,6.34765625,-35.15625,-31.25,-28.3203125
120.9375,-14.6484375,-40.0390625,-33.69140625,-37.109375
120.94140625,-52.24609375,-40.0390625,-30.76171875,-50.29296875
120.9453125,-40.0390625,-36.1328125,-26.3671875,-42.96875
120.94921875,-13.671875,-34.66796875,-31.25,-44.921875
120.953125,-1.46484375,-33.203125,-42.48046875,-15.13671875
120.95703125,-20.01953125,-35.15625,-36.62109375,-19.04296875
120.9609375,-37.109375,-41.9921875,-32.2265625,-35.15625
120.96484375,-20.99609375,-40.0390625,-30.76171875,-6.8359375
120.96875,-3.41796875,-39.0625,-28.80859375,-20.99609375
120.97265625,-54.19921875,-44.43359375,-31.25,-35.15625
120.9765625,-89.35546875,-44.921875,-26.85546875,-47.36328125
120.98046875,-69.3359375,-43.45703125,-25.390625,-62.01171875
120.984375,-51.26953125,-43.45703125,-30.76171875,-48.33984375
120.98828125,-57.12890625,-43.9453125,-33.69140625,-22.4609375
120.9921875,-80.56640625,-41.015625,-30.2734375,-14.6484375
120.99609375,-53.22265625,-41.9921875,-33.69140625,-37.109375
121.0,-22.4609375,-44.43359375,-35.64453125,-60.546875
121.00390625,-37.59765625,-43.45703125,-32.71484375,-56.640625
121.0078125,-67.87109375,-45.41015625,-32.2265625,-46.875
121.01171875,-59.5703125,-41.9921875,-31.73828125,-36.1328125
121.015625,-29.78515625,-40.52734375,-36.1328125,-15.625
121.01953125,-46.875,-41.9921875,-38.57421875,-27.34375
121.0234375,-60.05859375,-42.96875,-35.64453125,-36.62109375
121.02734375,-20.01953125,-39.55078125,-37.109375,-16.6015625
121.03125,-42.48046875,-36.62109375,-36.1328125,-16.6015625
121.03515625,-62.98828125,-39.0625,-32.71484375,-21.97265625
121.0390625,-77.1484375,-37.59765625,-30.76171875,-33.203125
121.04296875,-63.96484375,-34.1796875,-27.83203125,-25.390625
121.046875,-31.73828125,-39.55078125,-33.69140625,-31.73828125
121.05078125,-31.73828125,-38.0859375,-34.66796875,-49.31640625
121.0546875,-33.69140625,-35.64453125,-30.2734375,-20.5078125
121.05859375,-44.921875,-42.48046875,-35.64453125,-5.37109375
121.0625,-23.4375,-40.52734375,-35.15625,-10.25390625
121.06640625,-18.06640625,-34.1796875,-26.85546875,-28.80859375
121.0703125,-37.109375,-40.52734375,-29.78515625,-36.1328125
121.07421875,-44.921875,-46.875,-31.73828125,-23.92578125
121.078125,-32.71484375,-46.38671875,-27.34375,-26.3671875
121.08203125,-27.34375,-44.43359375,-31.73828125,-30.2734375
121.0859375,-36.62109375,-44.921875,-35.15625,-32.71484375
121.08984375,-34.1796875,-40.0390625,-31.25,-31.25
121.09375,-18.5546875,-36.62109375,-33.69140625,-23.92578125
121.09765625,-23.4375,-36.62109375,-31.73828125,8.30078125
121.1015625,-31.73828125,-38.0859375,-34.1796875,-13.18359375
121.10546875,-47.36328125,-38.0859375,-36.1328125,-58.10546875
121.109375,-62.5,-37.59765625,-31.73828125,-49.31640625
121.11328125,-42.96875,-38.57421875,-31.73828125,-46.38671875
121.1171875,-27.83203125,-39.0625,-34.66796875,-52.734375
121.12109375,-31.25,-31.25,-33.203125,-36.62109375
121.125,-38.57421875,-32.71484375,-30.2734375,-21.97265625
121.12890625,-39.0625,-39.55078125,-34.1796875,-42.96875
121.1328125,-35.64453125,-34.1796875,-34.1796875,-38.57421875
121.13671875,-40.52734375,-35.64453125,-36.1328125,-35.15625
121.140625,-40.52734375,-41.015625,-40.52734375,-36.1328125
121.14453125,-32.2265625,-32.2265625,-36.62109375,-29.296875
121.1484375,-30.2734375,-29.296875,-31.73828125,-25.390625
121.15234375,-40.0390625,-35.64453125,-33.203125,-36.62109375
121.15625,-67.87109375,-41.50390625,-36.62109375,-44.921875
121.16015625,-74.21875,-42.96875,-39.55078125,-38.57421875
121.1640625,-49.31640625,-36.1328125,-37.109375,-44.921875
121.16796875,-41.015625,-33.69140625,-37.109375,-25.390625
121.171875,-64.453125,-41.015625,-42.48046875,-33.203125
121.17578125,-51.7578125,-38.0859375,-36.62109375,-62.98828125
121.1796875,-31.73828125,-35.15625,-35.64453125,-47.36328125
121.18359375,-45.8984375,-41.015625,-45.41015625,-35.64453125
121.1875,-58.10546875,-41.9921875,-45.8984375,-46.38671875
121.19140625,-61.03515625,-38.0859375,-40.0390625,-57.12890625
121.1953125,-28.80859375,-41.50390625,-37.59765625,-35.15625
121.19921875,-15.13671875,-40.0390625,-35.64453125,-17.578125
121.203125,-12.20703125,-36.1328125,-30.2734375,-25.87890625
121.20703125,-38.0859375,-38.57421875,-27.83203125,-33.69140625
121.2109375,-92.7734375,-40.52734375,-29.296875,-41.9921875
121.21484375,-45.41015625,-36.1328125,-28.80859375,-41.015625
121.21875,-27.34375,-34.66796875,-29.296875,-44.43359375
121.22265625,-41.9921875,-31.73828125,-31.73828125,-39.0625
121.2265625,-35.64453125,-31.73828125,-35.15625,-52.734375
121.23046875,-44.43359375,-34.1796875,-36.1328125,-56.15234375
121.234375,-30.76171875,-35.15625,-36.62109375,-18.5546875
121.23828125,-46.38671875,-36.1328125,-35.64453125,-31.73828125
121.2421875,-53.22265625,-39.55078125,-38.0859375,-57.6171875
121.24609375,-30.2734375,-40.0390625,-38.57421875,-53.7109375
121.25,-38.0859375,-37.59765625,-37.59765625,-41.9921875
121.25390625,-36.1328125,-39.0625,-40.0390625,-15.13671875
121.2578125,-38.0859375,-39.0625,-39.0625,-24.90234375
121.26171875,-48.33984375,-32.71484375,-36.1328125,-44.43359375
121.265625,-30.2734375,-25.390625,-36.62109375,-35.64453125
121.26953125,-22.94921875,-30.2734375,-41.015625,-33.203125
121.2734375,-54.19921875,-36.1328125,-43.45703125,-41.015625
121.27734375,-48.33984375,-34.1796875,-41.015625,-41.9921875
121.28125,-38.0859375,-35.64453125,-38.0859375,-23.92578125
121.28515625,-63.4765625,-36.62109375,-38.57421875,-35.64453125
121.2890625,-46.38671875,-38.0859375,-40.0390625,-54.19921875
121.29296875,-37.109375,-41.50390625,-40.0390625,-51.26953125
121.296875,-52.734375,-39.55078125,-37.109375,-45.41015625
121.30078125,-32.2265625,-35.64453125,-34.1796875,-39.55078125
121.3046875,-30.76171875,-36.62109375,-38.0859375,-44.43359375
121.30859375,-45.41015625,-37.109375,-41.015625,-42.48046875
121.3125,-39.55078125,-36.1328125,-34.66796875,-43.45703125
121.31640625,-32.71484375,-37.59765625,-33.69140625,-56.15234375
121.3203125,-33.69140625,-36.1328125,-42.96875,-40.52734375
121.32421875,-23.92578125,-34.66796875,-45.41015625,-20.01953125
121.328125,-35.64453125,-34.66796875,-35.15625,-42.48046875
121.33203125,-30.2734375,-33.203125,-26.85546875,-42.48046875
121.3359375,-28.80859375,-41.9921875,-28.80859375,-16.6015625
121.33984375,-40.0390625,-41.9921875,-30.2734375,2.9296875
121.34375,2.9296875,-35.15625,-27.34375,37.59765625
121.34765625,19.04296875,-41.50390625,-29.78515625,32.2265625
121.3515625,23.92578125,-44.43359375,-28.80859375,20.99609375
121.35546875,41.50390625,-39.0625,-28.80859375,62.5
121.359375,33.203125,-38.57421875,-36.62109375,95.703125
121.36328125,48.828125,-38.0859375,-37.59765625,76.66015625
121.3671875,76.66015625,-39.0625,-39.55078125,52.24609375
121.37109375,70.80078125,-39.55078125,-43.9453125,77.1484375
121.375,41.015625,-39.55078125,-37.109375,79.58984375
121.37890625,42.96875,-37.109375,-34.1796875,92.7734375
121.3828125,65.4296875,-40.52734375,-39.0625,118.1640625
121.38671875,71.2890625,-41.015625,-31.73828125,104.4921875
121.390625,80.078125,-39.0625,-32.2265625,98.14453125
121.39453125,58.10546875,-44.921875,-34.66796875,117.67578125
121.3984375,36.1328125,-50.29296875,-33.69140625,81.54296875
121.40234375,44.43359375,-46.38671875,-34.1796875,60.546875
121.40625,37.109375,-42.48046875,-38.57421875,69.3359375
121.41015625,43.9453125,-41.50390625,-41.9921875,68.359375
121.4140625,49.31640625,-37.109375,-31.73828125,91.796875
121.41796875,62.98828125,-37.59765625,-28.3203125,57.6171875
121.421875,45.41015625,-43.9453125,-33.203125,18.5546875
121.42578125,19.04296875,-36.1328125,-34.66796875,52.24609375
121.4296875,50.29296875,-36.62109375,-32.71484375,75.68359375
121.43359375,66.89453125,-40.0390625,-32.71484375,72.265625
121.4375,31.73828125,-41.9921875,-40.52734375,35.64453125
121.44140625,-4.8828125,-42.48046875,-38.57421875,14.16015625
121.4453125,20.5078125,-41.015625,-34.66796875,19.53125
121.44921875,57.12890625,-35.64453125,-30.2734375,36.1328125
121.453125,49.8046875,-32.2265625,-28.80859375,41.015625
121.45703125,15.13671875,-34.1796875,-28.80859375,23.4375
121.4609375,8.30078125,-36.62109375,-27.34375,22.94921875
121.46484375,28.3203125,-36.62109375,-29.296875,17.08984375
121.46875,44.43359375,-30.76171875,-25.390625,27.83203125
121.47265625,28.80859375,-31.25,-20.99609375,78.125
121.4765625,-4.39453125,-42.48046875,-29.296875,47.8515625
121.48046875,14.6484375,-41.9921875,-33.69140625,10.25390625
121.484375,24.4140625,-37.59765625,-32.2265625,10.7421875
121.48828125,-6.34765625,-39.55078125,-28.80859375,28.3203125
121.4921875,-26.3671875,-41.50390625,-28.80859375,12.20703125
121.49609375,-25.87890625,-40.0390625,-31.73828125,-7.8125
121.5,-18.06640625,-39.0625,-32.71484375,22.4609375
121.50390625,-10.25390625,-42.96875,-35.15625,6.34765625
121.5078125,-22.4609375,-40.52734375,-35.64453125,-0.48828125
121.51171875,-24.90234375,-40.52734375,-35.64453125,-3.90625
121.515625,0.48828125,-42.48046875,-39.55078125,-9.765625
121.51953125,10.7421875,-39.55078125,-36.62109375,7.32421875
121.5234375,-9.765625,-41.015625,-33.69140625,3.41796875
121.52734375,-8.30078125,-38.0859375,-31.25,9.765625
121.53125,4.39453125,-36.1328125,-30.76171875,-3.90625
121.53515625,-13.671875,-41.9921875,-33.69140625,-14.16015625
121.5390625,-41.50390625,-43.45703125,-36.1328125,-8.30078125
121.54296875,-43.45703125,-39.55078125,-34.66796875,-19.04296875
121.546875,-18.5546875,-40.52734375,-34.1796875,-41.015625
121.55078125,-2.9296875,-44.43359375,-37.109375,-31.25
121.5546875,-8.7890625,-44.921875,-39.55078125,-15.625
121.55859375,-38.0859375,-42.96875,-37.59765625,-9.765625
121.5625,-18.5546875,-45.41015625,-34.66796875,-24.90234375
121.56640625,-0.9765625,-41.015625,-31.73828125,-27.34375
121.5703125,-23.92578125,-37.109375,-33.203125,-12.20703125
121.57421875,-22.94921875,-40.0390625,-35.15625,-4.39453125
121.578125,-7.32421875,-40.52734375,-36.1328125,1.953125
121.58203125,7.32421875,-39.0625,-39.0625,-6.8359375
121.5859375,14.6484375,-41.9921875,-36.62109375,-20.5078125
121.58984375,-3.41796875,-43.45703125,-35.64453125,-17.08984375
121.59375,-17.578125,-39.55078125,-34.66796875,9.765625
121.59765625,-9.765625,-35.15625,-33.69140625,-9.765625
121.6015625,-10.7421875,-37.109375,-35.15625,-26.85546875
121.60546875,-21.484375,-40.0390625,-33.203125,-15.13671875
121.609375,-15.13671875,-36.62109375,-34.1796875,-33.203125
121.61328125,-8.30078125,-34.1796875,-35.15625,-16.6015625
121.6171875,-15.13671875,-42.96875,-40.52734375,-37.59765625
121.62109375,-25.390625,-41.9921875,-42.48046875,-33.69140625
121.625,-24.90234375,-35.15625,-32.71484375,-4.39453125
121.62890625,-42.96875,-38.57421875,-31.73828125,-15.625
121.6328125,-20.5078125,-40.0390625,-39.55078125,-19.04296875
121.63671875,0.0,-41.9921875,-39.0625,-4.8828125
121.640625,-20.5078125,-41.50390625,-34.66796875,-14.16015625
121.64453125,-31.73828125,-34.66796875,-30.76171875,-13.671875
121.6484375,-19.53125,-37.59765625,-28.80859375,-12.6953125
121.65234375,-12.20703125,-39.0625,-28.3203125,-11.71875
121.65625,-35.64453125,-34.66796875,-30.2734375,-8.30078125
121.66015625,-29.78515625,-33.203125,-28.80859375,-13.18359375
121.6640625,-6.8359375,-36.62109375,-28.80859375,-11.23046875
121.66796875,-8.7890625,-35.15625,-24.4140625,-24.90234375
121.671875,-23.92578125,-36.1328125,-26.3671875,-34.66796875
121.67578125,-51.7578125,-44.43359375,-30.76171875,-51.7578125
121.6796875,-48.828125,-41.50390625,-23.92578125,-47.8515625
121.68359375,-39.0625,-37.109375,-20.99609375,-46.38671875
121.6875,-41.015625,-37.59765625,-24.4140625,-51.7578125
121.69140625,-40.0390625,-39.0625,-21.484375,-41.50390625
121.6953125,-75.68359375,-34.66796875,-12.6953125,-79.1015625
121.69921875,-96.6796875,-36.1328125,-6.8359375,-115.72265625
121.703125,-107.91015625,-34.1796875,-6.34765625,-121.58203125
121.70703125,-126.46484375,-30.2734375,-7.8125,-117.67578125
121.7109375,-145.5078125,-35.15625,-8.7890625,-125.48828125
121.71484375,-196.77734375,-34.66796875,-4.8828125,-149.90234375
121.71875,-179.6875,-33.69140625,0.48828125,-162.109375
121.72265625,-177.734375,-33.69140625,0.48828125,-185.546875
121.7265625,-205.078125,-33.69140625,-4.39453125,-177.24609375
121.73046875,-199.21875,-31.25,-12.20703125,-182.12890625
121.734375,-229.98046875,-29.296875,-5.37109375,-215.8203125
121.73828125,-253.90625,-33.203125,-1.953125,-224.12109375
121.7421875,-249.51171875,-38.0859375,-11.71875,-233.3984375
121.74609375,-236.328125,-32.71484375,-9.27734375,-222.16796875
121.75,-239.74609375,-31.25,-7.8125,-229.4921875
121.75390625,-236.328125,-31.25,-11.23046875,-237.3046875
121.7578125,-232.421875,-32.2265625,-12.20703125,-242.67578125
121.76171875,-233.3984375,-37.59765625,-23.4375,-250.48828125
121.765625,-190.4296875,-32.71484375,-28.3203125,-224.609375
121.76953125,-186.5234375,-32.2265625,-20.01953125,-222.65625
121.7734375,-223.6328125,-34.1796875,-16.11328125,-229.98046875
121.77734375,-223.14453125,-27.34375,-15.625,-219.23828125
121.78125,-203.125,-28.3203125,-22.94921875,-229.4921875
121.78515625,-179.6875,-30.76171875,-28.3203125,-229.00390625
121.7890625,-172.8515625,-27.83203125,-27.34375,-211.42578125
121.79296875,-168.9453125,-27.34375,-30.76171875,-193.84765625
121.796875,-162.59765625,-29.78515625,-36.1328125,-186.03515625
121.80078125,-135.7421875,-27.83203125,-39.55078125,-179.6875
121.8046875,-141.11328125,-35.64453125,-41.9921875,-190.4296875
121.80859375,-122.0703125,-38.57421875,-40.52734375,-190.91796875
121.8125,-87.890625,-33.69140625,-43.45703125,-153.80859375
121.81640625,-108.3984375,-40.0390625,-45.8984375,-130.37109375
121.8203125,-112.79296875,-40.52734375,-49.31640625,-158.69140625
121.82421875,-95.703125,-32.2265625,-53.7109375,-142.578125
121.828125,-85.44921875,-31.25,-49.8046875,-108.3984375
121.83203125,-66.40625,-35.64453125,-54.19921875,-120.60546875
121.8359375,-59.08203125,-34.1796875,-52.734375,-124.51171875
121.83984375,-75.68359375,-33.69140625,-49.8046875,-116.2109375
121.84375,-53.7109375,-34.1796875,-55.17578125,-93.75
121.84765625,-45.41015625,-33.69140625,-59.5703125,-77.1484375
121.8515625,-20.01953125,-37.59765625,-62.5,-83.0078125
121.85546875,-18.5546875,-41.9921875,-61.5234375,-90.8203125
121.859375,-61.03515625,-39.0625,-59.08203125,-90.33203125
121.86328125,-38.0859375,-35.64453125,-61.5234375,-78.61328125
121.8671875,-13.671875,-37.109375,-67.3828125,-63.96484375
121.87109375,-25.87890625,-39.0625,-62.01171875,-45.8984375
121.875,-25.87890625,-36.62109375,-57.6171875,-65.91796875
121.87890625,-31.73828125,-38.57421875,-61.03515625,-60.05859375
121.8828125,-12.6953125,-37.109375,-58.10546875,-29.296875
121.88671875,-3.41796875,-35.64453125,-58.59375,-43.45703125
121.890625,-11.23046875,-40.0390625,-60.546875,-29.296875
121.89453125,17.08984375,-40.52734375,-60.05859375,-11.23046875
121.8984375,16.6015625,-40.0390625,-66.89453125,-8.30078125
121.90234375,5.37109375,-35.64453125,-62.01171875,-9.27734375
121.90625,-2.44140625,-36.62109375,-54.6875,-18.5546875
121.91015625,0.0,-41.015625,-56.640625,-16.11328125
121.9140625,33.69140625,-40.0390625,-55.17578125,-11.23046875
121.91796875,32.2265625,-36.1328125,-49.8046875,19.04296875
121.921875,5.859375,-36.1328125,-49.31640625,20.01953125
121.92578125,-13.18359375,-43.45703125,-54.19921875,-7.32421875
121.9296875,-1.953125,-45.41015625,-57.6171875,-1.953125
121.93359375,19.53125,-45.8984375,-56.15234375,-12.6953125
121.9375,-1.953125,-45.41015625,-52.734375,-18.06640625
121.94140625,-38.57421875,-39.0625,-49.8046875,-3.90625
121.9453125,-1.46484375,-41.50390625,-51.7578125,11.23046875
121.94921875,34.1796875,-39.55078125,-49.31640625,1.46484375
121.953125,11.23046875,-39.55078125,-49.31640625,-4.8828125
121.95703125,-14.16015625,-43.45703125,-46.875,-1.46484375
121.9609375,-15.625,-46.875,-45.41015625,-10.25390625
121.96484375,-2.44140625,-43.45703125,-42.48046875,-1.46484375
121.96875,2.44140625,-39.0625,-40.52734375,9.765625
121.97265625,-10.7421875,-43.45703125,-43.9453125,0.48828125
121.9765625,-16.6015625,-43.45703125,-41.9921875,-12.20703125
121.98046875,0.0,-37.59765625,-40.52734375,-5.859375
121.984375,14.16015625,-39.0625,-42.48046875,23.92578125
121.98828125,5.859375,-41.50390625,-41.9921875,5.37109375
121.9921875,-29.296875,-44.43359375,-48.828125,-11.23046875
121.99609375,-14.16015625,-45.8984375,-48.828125,-11.71875
122.0,19.53125,-41.50390625,-48.33984375,-15.625
122.00390625,-3.90625,-39.55078125,-50.29296875,-8.7890625
122.0078125,-30.76171875,-41.015625,-47.8515625,-26.85546875
122.01171875,-25.87890625,-40.52734375,-48.33984375,-17.08984375
122.015625,-2.9296875,-37.109375,-50.78125,-2.9296875
122.01953125,-20.99609375,-38.57421875,-48.33984375,-17.578125
122.0234375,-34.1796875,-39.55078125,-44.921875,-16.11328125
122.02734375,-26.85546875,-41.015625,-46.38671875,-1.46484375
122.03125,-20.99609375,-42.96875,-45.8984375,5.859375
122.03515625,-18.5546875,-39.0625,-42.96875,-5.859375
122.0390625,-21.484375,-42.96875,-47.36328125,-25.390625
122.04296875,-10.7421875,-45.8984375,-48.828125,-12.6953125
122.046875,-20.99609375,-46.38671875,-51.26953125,0.48828125
122.05078125,-18.06640625,-47.8515625,-50.78125,-14.16015625
122.0546875,-0.48828125,-46.38671875,-52.24609375,-13.18359375
122.05859375,-24.4140625,-41.50390625,-54.6875,-1.953125
122.0625,-51.26953125,-37.109375,-45.8984375,-25.87890625
122.06640625,-53.22265625,-37.109375,-38.0859375,-54.6875
122.0703125,-39.55078125,-41.9921875,-40.52734375,-51.26953125
122.07421875,-44.43359375,-45.8984375,-43.45703125,-36.62109375
122.078125,-42.48046875,-42.96875,-42.48046875,-34.1796875
122.08203125,-15.625,-37.109375,-35.64453125,-31.25
122.0859375,-19.04296875,-38.57421875,-38.57421875,-13.671875
122.08984375,-41.9921875,-45.41015625,-42.48046875,-17.578125
122.09375,-47.36328125,-47.36328125,-44.43359375,-46.875
122.09765625,-51.26953125,-47.8515625,-45.8984375,-54.6875
122.1015625,-42.48046875,-48.33984375,-42.48046875,-46.38671875
122.10546875,-44.43359375,-46.875,-42.48046875,-40.0390625
122.109375,-47.36328125,-46.38671875,-45.41015625,-53.22265625
122.11328125,-29.296875,-46.38671875,-35.64453125,-31.73828125
122.1171875,-37.59765625,-41.9921875,-29.78515625,-20.99609375
122.12109375,-50.78125,-40.52734375,-35.15625,-48.828125
122.125,-68.84765625,-42.96875,-31.25,-39.0625
122.12890625,-66.40625,-39.0625,-29.296875,-35.64453125
122.1328125,-44.43359375,-41.015625,-35.64453125,-30.76171875
122.13671875,-56.640625,-44.43359375,-37.59765625,-32.71484375
122.140625,-60.05859375,-38.57421875,-34.1796875,-41.015625
122.14453125,-41.9921875,-32.71484375,-32.71484375,-37.109375
122.1484375,-39.0625,-31.73828125,-31.73828125,-22.4609375
122.15234375,-52.734375,-32.2265625,-28.3203125,-6.8359375
122.15625,-52.24609375,-33.69140625,-27.83203125,-16.11328125
122.16015625,-62.98828125,-35.64453125,-31.25,-42.48046875
122.1640625,-63.96484375,-34.66796875,-31.25,-52.734375
122.16796875,-45.41015625,-36.62109375,-33.69140625,-37.59765625
122.171875,-52.734375,-40.0390625,-40.52734375,-50.29296875
122.17578125,-59.5703125,-38.0859375,-38.0859375,-48.828125
122.1796875,-47.36328125,-37.109375,-34.66796875,-41.015625
122.18359375,-28.80859375,-37.109375,-39.0625,-44.921875
122.1875,-33.203125,-33.69140625,-37.109375,-33.203125
122.19140625,-56.640625,-35.15625,-35.15625,-26.85546875
122.1953125,-55.17578125,-40.52734375,-40.52734375,-42.48046875
122.19921875,-28.80859375,-41.015625,-39.55078125,-48.33984375
122.203125,-40.52734375,-41.9921875,-39.0625,-48.828125
122.20703125,-68.359375,-40.52734375,-40.52734375,-37.109375
122.2109375,-63.96484375,-37.109375,-35.64453125,-21.484375
122.21484375,-45.41015625,-35.15625,-32.2265625,-46.875
122.21875,-35.64453125,-36.1328125,-37.109375,-58.10546875
122.22265625,-54.6875,-38.57421875,-43.9453125,-39.55078125
122.2265625,-61.03515625,-41.50390625,-47.36328125,-43.9453125
122.23046875,-28.3203125,-40.52734375,-44.921875,-45.41015625
122.234375,-32.71484375,-43.45703125,-44.43359375,-60.05859375
122.23828125,-41.015625,-49.31640625,-50.29296875,-52.734375
122.2421875,-48.33984375,-45.8984375,-44.43359375,-26.85546875
122.24609375,-71.77734375,-41.015625,-40.0390625,-41.9921875
122.25,-45.8984375,-38.0859375,-40.0390625,-50.78125
122.25390625,-42.48046875,-38.0859375,-40.52734375,-40.0390625
122.2578125,-49.8046875,-41.015625,-41.50390625,-45.8984375
122.26171875,-45.8984375,-39.0625,-39.0625,-38.57421875
122.265625,-17.08984375,-36.62109375,-39.55078125,-39.55078125
122.26953125,-7.8125,-35.64453125,-40.0390625,-43.45703125
122.2734375,-21.97265625,-39.55078125,-40.0390625,-47.36328125
122.27734375,-47.36328125,-40.0390625,-40.0390625,-41.015625
122.28125,-47.8515625,-33.203125,-35.15625,-23.92578125
122.28515625,-18.5546875,-38.0859375,-36.62109375,-34.66796875
122.2890625,-25.390625,-42.48046875,-38.0859375,-48.33984375
122.29296875,-51.7578125,-42.48046875,-36.62109375,-41.015625
122.296875,-39.55078125,-41.50390625,-38.57421875,-35.15625
122.30078125,-14.16015625,-38.57421875,-41.015625,-56.640625
122.3046875,-37.59765625,-40.52734375,-40.0390625,-65.91796875
122.30859375,-64.453125,-43.45703125,-39.55078125,-37.59765625
122.3125,-66.40625,-42.48046875,-41.9921875,-55.17578125
122.31640625,-39.55078125,-37.109375,-37.59765625,-55.6640625
122.3203125,-31.73828125,-38.57421875,-37.109375,-38.57421875
122.32421875,-64.453125,-41.9921875,-38.0859375,-39.55078125
122.328125,-57.12890625,-41.9921875,-35.15625,-33.203125
122.33203125,-22.94921875,-42.96875,-37.109375,-31.25
122.3359375,-50.29296875,-45.8984375,-43.45703125,-50.78125
122.33984375,-81.54296875,-41.9921875,-37.59765625,-43.9453125
122.34375,-49.31640625,-42.48046875,-30.2734375,-21.97265625
122.34765625,-40.52734375,-45.41015625,-37.59765625,-34.1796875
122.3515625,-28.3203125,-44.921875,-41.015625,-39.55078125
122.35546875,-42.48046875,-42.96875,-40.52734375,-45.8984375
122.359375,-74.70703125,-47.8515625,-42.96875,-46.875
122.36328125,-54.19921875,-43.9453125,-41.50390625,-48.33984375
122.3671875,-19.04296875,-40.52734375,-40.0390625,-57.6171875
122.37109375,-17.578125,-40.0390625,-35.64453125,-38.57421875
122.375,-34.66796875,-41.9921875,-35.15625,-40.0390625
122.37890625,-48.828125,-44.43359375,-40.52734375,-50.29296875
122.3828125,-52.734375,-43.9453125,-47.8515625,-36.62109375
122.38671875,-41.9921875,-40.0390625,-41.015625,-29.296875
122.390625,-36.62109375,-41.50390625,-37.109375,-20.99609375
122.39453125,-18.06640625,-41.015625,-41.015625,-27.83203125
122.3984375,-43.9453125,-39.0625,-39.0625,-30.76171875
122.40234375,-51.26953125,-41.015625,-41.015625,-44.43359375
122.40625,-26.85546875,-42.48046875,-39.55078125,-65.4296875
122.41015625,-44.921875,-41.015625,-41.015625,-56.15234375
122.4140625,-40.52734375,-42.48046875,-46.38671875,-51.7578125
122.41796875,-22.4609375,-45.8984375,-45.8984375,-43.9453125
122.421875,-34.1796875,-41.015625,-42.48046875,-34.66796875
122.42578125,-44.921875,-37.59765625,-42.96875,-45.41015625
122.4296875,-27.34375,-40.52734375,-42.96875,-39.0625
122.43359375,-25.390625,-38.57421875,-41.015625,-15.625
122.4375,-34.66796875,-38.0859375,-42.96875,-31.73828125
122.44140625,-47.36328125,-41.9921875,-41.9921875,-51.26953125
122.4453125,-41.50390625,-41.50390625,-42.48046875,-49.31640625
122.44921875,-25.87890625,-41.50390625,-42.48046875,-43.9453125
122.453125,-22.4609375,-41.9921875,-41.9921875,-34.1796875
122.45703125,-40.52734375,-36.1328125,-39.0625,-38.57421875
122.4609375,-56.640625,-33.203125,-38.0859375,-36.1328125
122.46484375,-36.1328125,-36.1328125,-36.62109375,-37.109375
122.46875,-25.87890625,-37.59765625,-34.1796875,-47.8515625
122.47265625,-51.7578125,-37.59765625,-34.1796875,-30.2734375
122.4765625,-56.15234375,-38.0859375,-33.69140625,-25.87890625
122.48046875,-38.0859375,-37.59765625,-32.2265625,-37.59765625
122.484375,-50.78125,-38.57421875,-34.66796875,-28.3203125
122.48828125,-56.640625,-38.0859375,-41.50390625,-26.85546875
122.4921875,-57.6171875,-37.109375,-44.43359375,-26.3671875
122.49609375,-55.6640625,-35.64453125,-41.50390625,-52.24609375
122.5,-26.85546875,-34.66796875,-40.0390625,-61.5234375
122.50390625,-23.4375,-35.64453125,-39.0625,-46.38671875
122.5078125,-51.26953125,-41.50390625,-40.52734375,-38.0859375
122.51171875,-53.7109375,-44.921875,-41.015625,-47.8515625
122.515625,-30.2734375,-41.9921875,-37.59765625,-41.50390625
122.51953125,-29.296875,-38.57421875,-36.62109375,-33.203125
122.5234375,-36.62109375,-38.0859375,-34.1796875,-44.43359375
122.52734375,-33.69140625,-36.1328125,-33.69140625,-40.0390625
122.53125,-33.69140625,-35.15625,-35.15625,-33.203125
122.53515625,-30.2734375,-38.57421875,-33.69140625,-48.33984375
122.5390625,-58.10546875,-40.0390625,-35.15625,-45.41015625
122.54296875,-57.6171875,-40.0390625,-35.15625,-40.52734375
122.546875,-26.3671875,-37.59765625,-34.66796875,-56.640625
122.55078125,-24.90234375,-38.57421875,-32.71484375,-59.5703125
122.5546875,-44.43359375,-45.41015625,-37.59765625,-51.7578125
122.55859375,-41.9921875,-41.50390625,-39.0625,-51.26953125
122.5625,-18.5546875,-35.15625,-36.1328125,-51.26953125
122.56640625,-24.4140625,-40.52734375,-39.55078125,-27.34375
122.5703125,-25.390625,-39.0625,-36.62109375,-37.59765625
122.57421875,-43.45703125,-37.59765625,-34.66796875,-43.45703125
122.578125,-44.43359375,-41.50390625,-35.64453125,-28.3203125
122.58203125,-21.484375,-40.0390625,-39.55078125,-42.48046875
122.5859375,-27.34375,-39.0625,-40.52734375,-51.7578125
122.58984375,-36.1328125,-38.57421875,-37.109375,-42.96875
122.59375,-42.96875,-39.0625,-31.25,-27.34375
122.59765625,-28.3203125,-36.62109375,-34.1796875,-32.71484375
122.6015625,-20.99609375,-40.0390625,-38.0859375,-55.6640625
122.60546875,-43.45703125,-43.45703125,-36.1328125,-48.828125
122.609375,-52.734375,-42.96875,-37.59765625,-39.0625
122.61328125,-27.83203125,-39.55078125,-41.50390625,-36.62109375
122.6171875,-16.11328125,-40.52734375,-49.8046875,-30.76171875
122.62109375,-13.18359375,-39.55078125,-51.7578125,-20.5078125
122.625,-23.4375,-41.015625,-39.0625,-15.625
122.62890625,-14.6484375,-38.57421875,-26.85546875,-9.27734375
122.6328125,10.7421875,-32.71484375,-26.3671875,9.27734375
122.63671875,4.39453125,-41.015625,-31.25,17.08984375
122.640625,8.30078125,-42.48046875,-32.2265625,28.3203125
122.64453125,19.53125,-39.55078125,-33.203125,37.109375
122.6484375,35.64453125,-43.45703125,-38.57421875,40.52734375
122.65234375,60.05859375,-42.48046875,-41.015625,60.05859375
122.65625,46.875,-44.43359375,-40.0390625,68.84765625
122.66015625,58.10546875,-42.48046875,-44.921875,81.54296875
122.6640625,97.16796875,-35.64453125,-37.109375,98.14453125
122.66796875,102.5390625,-33.203125,-33.203125,98.14453125
122.671875,89.84375,-35.15625,-35.15625,104.4921875
122.67578125,82.03125,-36.1328125,-35.64453125,105.46875
122.6796875,86.9140625,-35.15625,-37.109375,114.2578125
122.68359375,102.05078125,-38.0859375,-37.109375,118.1640625
122.6875,96.6796875,-36.1328125,-33.203125,97.16796875
122.69140625,83.49609375,-27.34375,-28.3203125,99.609375
122.6953125,75.68359375,-34.66796875,-37.109375,84.9609375
122.69921875,75.68359375,-41.9921875,-39.0625,72.75390625
122.703125,76.66015625,-40.52734375,-33.203125,66.40625
122.70703125,60.546875,-40.52734375,-36.1328125,54.6875
122.7109375,54.6875,-42.96875,-38.57421875,62.01171875
122.71484375,73.73046875,-43.45703125,-39.55078125,63.96484375
122.71875,75.1953125,-40.52734375,-40.52734375,55.6640625
122.72265625,55.17578125,-41.015625,-35.64453125,69.82421875
122.7265625,63.4765625,-37.109375,-32.2265625,86.9140625
122.73046875,69.3359375,-36.1328125,-36.62109375,54.19921875
122.734375,62.01171875,-38.57421875,-39.55078125,41.015625
122.73828125,54.6875,-34.1796875,-34.1796875,35.15625
122.7421875,42.48046875,-34.66796875,-31.25,25.390625
122.74609375,51.7578125,-35.64453125,-35.15625,22.94921875
122.75,70.3125,-34.1796875,-32.71484375,17.578125
122.75390625,60.546875,-39.55078125,-30.76171875,23.92578125
122.7578125,44.43359375,-42.96875,-38.0859375,13.18359375
122.76171875,57.12890625,-37.109375,-39.0625,25.87890625
122.765625,62.98828125,-32.71484375,-35.15625,43.9453125
122.76953125,59.5703125,-31.73828125,-32.71484375,16.6015625
122.7734375,54.6875,-29.296875,-33.203125,13.671875
122.77734375,46.875,-29.296875,-34.1796875,15.625
122.78125,63.4765625,-30.76171875,-32.2265625,11.23046875
122.78515625,70.3125,-26.85546875,-30.76171875,11.71875
122.7890625,49.8046875,-32.2265625,-34.66796875,7.8125
122.79296875,42.48046875,-35.64453125,-35.15625,16.6015625
122.796875,53.7109375,-36.1328125,-35.64453125,10.7421875
122.80078125,57.12890625,-38.0859375,-35.64453125,4.8828125
122.8046875,44.43359375,-35.15625,-24.90234375,11.71875
122.80859375,20.99609375,-33.203125,-23.92578125,3.41796875
122.8125,29.296875,-37.59765625,-29.296875,-0.48828125
122.81640625,49.8046875,-36.62109375,-28.80859375,-6.8359375
122.8203125,31.73828125,-40.52734375,-33.203125,-8.7890625
122.82421875,14.16015625,-40.52734375,-34.66796875,-8.30078125
122.828125,33.203125,-32.71484375,-34.66796875,-6.8359375
122.83203125,53.7109375,-26.3671875,-29.78515625,-1.953125
122.8359375,41.9921875,-34.1796875,-28.3203125,2.44140625
122.83984375,24.4140625,-35.64453125,-28.80859375,-2.9296875
122.84375,30.2734375,-28.3203125,-22.4609375,3.41796875
122.84765625,37.59765625,-29.296875,-20.01953125,20.5078125
122.8515625,51.7578125,-32.2265625,-22.94921875,-23.92578125
122.85546875,23.4375,-35.64453125,-33.203125,-46.875
122.859375,3.90625,-36.1328125,-34.1796875,-19.53125
122.86328125,31.73828125,-31.73828125,-27.83203125,-26.3671875
122.8671875,47.36328125,-33.203125,-30.76171875,-26.3671875
122.87109375,28.3203125,-38.57421875,-35.15625,-9.765625
122.875,9.27734375,-37.109375,-29.296875,-3.90625
122.87890625,21.97265625,-34.1796875,-24.90234375,-23.4375
122.8828125,38.57421875,-35.64453125,-33.69140625,-15.13671875
122.88671875,31.25,-34.1796875,-32.2265625,9.765625
122.890625,21.484375,-29.78515625,-26.3671875,-19.53125
122.89453125,28.80859375,-30.2734375,-31.73828125,-22.4609375
122.8984375,38.0859375,-30.2734375,-34.1796875,-9.765625
122.90234375,31.73828125,-30.2734375,-34.1796875,-27.34375
122.90625,15.13671875,-32.2265625,-33.69140625,-13.671875
122.91015625,-2.9296875,-34.1796875,-34.1796875,-18.06640625
122.9140625,-1.953125,-35.64453125,-30.2734375,-51.26953125
122.91796875,27.83203125,-31.25,-28.3203125,-33.203125
122.921875,25.390625,-31.25,-31.73828125,-10.25390625
122.92578125,19.53125,-27.34375,-26.3671875,-12.6953125
122.9296875,20.01953125,-28.3203125,-27.34375,-14.6484375
122.93359375,23.4375,-32.2265625,-32.71484375,-22.94921875
122.9375,26.3671875,-30.76171875,-32.2265625,-32.71484375
122.94140625,-0.48828125,-30.76171875,-31.25,-26.3671875
122.9453125,1.953125,-29.78515625,-28.3203125,-18.06640625
122.94921875,26.3671875,-28.80859375,-28.3203125,-27.34375
122.953125,16.11328125,-31.73828125,-35.64453125,-13.671875
122.95703125,13.18359375,-31.25,-37.59765625,-16.11328125
122.9609375,-9.27734375,-34.66796875,-37.109375,-28.80859375
122.96484375,15.625,-32.2265625,-37.109375,-24.4140625
122.96875,42.48046875,-24.4140625,-34.1796875,-38.0859375
122.97265625,13.671875,-25.390625,-31.73828125,-43.9453125
122.9765625,9.27734375,-33.203125,-32.71484375,-25.390625
122.98046875,10.7421875,-31.73828125,-32.71484375,-35.15625
122.984375,19.04296875,-29.296875,-35.15625,-42.96875
122.98828125,-4.39453125,-36.62109375,-33.69140625,-25.390625
122.9921875,-17.578125,-36.1328125,-33.203125,-23.92578125
122.99609375,6.8359375,-31.25,-36.62109375,-28.80859375
123.0,21.484375,-32.71484375,-33.203125,-37.109375
123.00390625,1.953125,-33.203125,-30.76171875,-46.38671875
123.0078125,-21.97265625,-32.2265625,-32.71484375,-35.15625
123.01171875,-22.4609375,-37.59765625,-39.0625,-39.0625
123.015625,-5.859375,-39.55078125,-39.0625,-46.875
123.01953125,4.39453125,-30.76171875,-34.66796875,-38.0859375
123.0234375,-10.7421875,-31.25,-33.203125,-38.0859375
123.02734375,-21.97265625,-33.203125,-30.76171875,-30.2734375
123.03125,-5.859375,-31.25,-27.83203125,-33.69140625
123.03515625,-5.37109375,-31.73828125,-30.2734375,-39.0625
123.0390625,-43.45703125,-32.71484375,-33.69140625,-34.1796875
123.04296875,-41.50390625,-29.78515625,-31.73828125,-23.92578125
123.046875,-19.04296875,-34.66796875,-29.78515625,-25.87890625
123.05078125,-16.6015625,-37.109375,-36.62109375,-50.29296875
123.0546875,-22.94921875,-35.64453125,-38.57421875,-53.22265625
123.05859375,-30.76171875,-35.64453125,-34.66796875,-37.109375
123.0625,-33.69140625,-34.66796875,-37.59765625,-40.0390625
123.06640625,-23.4375,-30.76171875,-34.66796875,-50.78125
123.0703125,-24.90234375,-35.15625,-32.71484375,-53.7109375
123.07421875,-45.41015625,-37.59765625,-34.1796875,-38.57421875
123.078125,-39.0625,-32.71484375,-28.80859375,-31.73828125
123.08203125,-20.01953125,-29.78515625,-25.390625,-42.48046875
123.0859375,-20.01953125,-31.25,-27.34375,-42.96875
123.08984375,-35.64453125,-33.203125,-28.80859375,-36.1328125
123.09375,-43.9453125,-34.1796875,-31.73828125,-31.25
123.09765625,-18.5546875,-34.66796875,-31.73828125,-58.10546875
123.1015625,-7.8125,-32.2265625,-26.3671875,-54.6875
123.10546875,-19.53125,-32.71484375,-28.80859375,-40.52734375
123.109375,-20.99609375,-31.73828125,-28.3203125,-36.62109375
123.11328125,-16.11328125,-31.25,-20.99609375,-18.06640625
123.1171875,-12.6953125,-37.59765625,-22.94921875,-22.94921875
123.12109375,-27.83203125,-31.73828125,-25.390625,-36.62109375
123.125,-23.4375,-27.83203125,-25.87890625,-30.2734375
123.12890625,-12.6953125,-32.2265625,-27.83203125,-36.1328125
123.1328125,-3.90625,-32.2265625,-26.3671875,-25.87890625
123.13671875,-17.08984375,-32.2265625,-26.3671875,-28.80859375
123.140625,-53.22265625,-33.69140625,-29.296875,-47.8515625
123.14453125,-41.9921875,-31.25,-32.2265625,-51.7578125
123.1484375,-23.4375,-32.71484375,-33.203125,-58.59375
123.15234375,-16.6015625,-31.73828125,-28.80859375,-46.875
123.15625,-26.85546875,-32.71484375,-26.85546875,-28.3203125
123.16015625,-29.78515625,-29.78515625,-30.76171875,-36.1328125
123.1640625,-12.6953125,-29.296875,-30.76171875,-48.33984375
123.16796875,-6.34765625,-36.1328125,-30.76171875,-30.76171875
123.171875,-11.71875,-34.66796875,-33.69140625,-9.765625
123.17578125,4.39453125,-34.1796875,-43.45703125,-1.46484375
123.1796875,-10.25390625,-34.1796875,-41.015625,-26.3671875
123.18359375,-48.828125,-29.78515625,-31.73828125,-83.49609375
123.1875,-76.171875,-30.76171875,-38.57421875,-89.84375
123.19140625,-94.23828125,-35.64453125,-41.50390625,-84.47265625
123.1953125,-103.02734375,-35.64453125,-39.55078125,-107.421875
123.19921875,-96.19140625,-27.83203125,-36.1328125,-120.1171875
123.203125,-117.1875,-28.80859375,-36.1328125,-148.92578125
123.20703125,-169.43359375,-31.73828125,-37.109375,-176.7578125
123.2109375,-185.546875,-33.203125,-39.0625,-179.6875
123.21484375,-158.203125,-30.76171875,-41.50390625,-188.4765625
123.21875,-157.2265625,-26.3671875,-46.38671875,-197.75390625
123.22265625,-184.5703125,-27.34375,-47.8515625,-194.82421875
123.2265625,-190.4296875,-33.203125,-50.29296875,-190.91796875
123.23046875,-177.734375,-29.78515625,-53.22265625,-196.2890625
123.234375,-146.97265625,-27.34375,-47.36328125,-207.03125
123.23828125,-155.2734375,-29.78515625,-44.43359375,-183.59375
123.2421875,-168.45703125,-31.73828125,-43.9453125,-168.9453125
123.24609375,-164.0625,-32.71484375,-42.48046875,-175.29296875
123.25,-152.34375,-32.2265625,-47.36328125,-169.921875
123.25390625,-142.578125,-34.1796875,-43.45703125,-162.59765625
123.2578125,-139.6484375,-32.71484375,-41.9921875,-145.5078125
123.26171875,-126.46484375,-30.76171875,-43.45703125,-136.23046875
123.265625,-89.35546875,-30.2734375,-39.0625,-111.328125
123.26953125,-74.21875,-33.203125,-37.109375,-69.82421875
123.2734375,-100.5859375,-39.0625,-39.55078125,-82.03125
123.27734375,-113.76953125,-36.62109375,-42.48046875,-123.53515625
123.28125,-100.09765625,-33.69140625,-41.9921875,-110.83984375
123.28515625,-66.40625,-32.2265625,-40.0390625,-77.63671875
123.2890625,-76.171875,-28.80859375,-38.0859375,-87.890625
123.29296875,-119.62890625,-30.76171875,-40.52734375,-96.6796875
123.296875,-88.37890625,-32.71484375,-41.50390625,-77.1484375
123.30078125,-36.1328125,-26.3671875,-35.64453125,-63.96484375
123.3046875,-48.828125,-30.2734375,-33.203125,-79.58984375
123.30859375,-54.6875,-36.62109375,-35.15625,-70.3125
123.3125,-50.78125,-36.62109375,-40.0390625,-53.7109375
123.31640625,-54.19921875,-39.55078125,-41.015625,-58.59375
123.3203125,-54.6875,-37.59765625,-36.62109375,-78.61328125
123.32421875,-68.359375,-36.1328125,-35.64453125,-67.3828125
123.328125,-67.87109375,-37.109375,-36.62109375,-58.10546875
123.33203125,-45.8984375,-33.69140625,-36.1328125,-54.19921875
123.3359375,-44.921875,-32.71484375,-40.0390625,-58.10546875
123.33984375,-54.6875,-38.0859375,-41.50390625,-51.7578125
123.34375,-46.875,-33.69140625,-37.59765625,-35.15625
123.34765625,-37.109375,-30.2734375,-37.59765625,-53.7109375
123.3515625,-18.5546875,-37.59765625,-37.59765625,-51.26953125
123.35546875,-27.83203125,-40.52734375,-41.50390625,-37.109375
123.359375,-45.8984375,-38.0859375,-49.31640625,-22.4609375
123.36328125,3.90625,-31.73828125,-46.875,-25.390625
123.3671875,-9.27734375,-31.73828125,-43.45703125,-59.08203125
123.37109375,-59.5703125,-37.59765625,-45.8984375,-73.73046875
123.375,-68.359375,-37.59765625,-40.52734375,-83.0078125
123.37890625,-56.640625,-35.15625,-40.52734375,-94.23828125
123.3828125,-28.80859375,-30.76171875,-40.52734375,-90.8203125
123.38671875,-49.8046875,-28.80859375,-37.59765625,-91.796875
123.390625,-94.7265625,-35.64453125,-43.9453125,-88.37890625
123.39453125,-85.9375,-32.71484375,-41.015625,-78.125
123.3984375,-59.08203125,-35.64453125,-43.45703125,-85.44921875
123.40234375,-51.7578125,-38.0859375,-46.875,-81.0546875
123.40625,-63.4765625,-39.0625,-42.96875,-65.91796875
123.41015625,-62.5,-41.015625,-42.48046875,-64.453125
123.4140625,-45.8984375,-40.0390625,-44.43359375,-54.6875
123.41796875,-42.48046875,-45.8984375,-45.8984375,-62.5
123.421875,-34.66796875,-46.875,-41.015625,-64.453125
123.42578125,-58.10546875,-44.43359375,-39.0625,-47.36328125
123.4296875,-65.4296875,-45.8984375,-42.96875,-60.546875
123.43359375,-44.43359375,-45.41015625,-41.015625,-52.734375
123.4375,-38.57421875,-42.96875,-40.52734375,-51.7578125
123.44140625,-50.29296875,-42.48046875,-40.52734375,-62.01171875
123.4453125,-60.05859375,-47.8515625,-42.96875,-61.03515625
123.44921875,-35.15625,-43.45703125,-43.45703125,-53.7109375
123.453125,-50.78125,-39.0625,-43.45703125,-62.01171875
123.45703125,-66.40625,-41.9921875,-47.8515625,-58.59375
123.4609375,-75.68359375,-40.0390625,-46.875,-39.55078125
123.46484375,-73.73046875,-36.62109375,-45.8984375,-64.453125
123.46875,-54.19921875,-34.66796875,-45.8984375,-63.96484375
123.47265625,-63.96484375,-40.52734375,-45.8984375,-52.24609375
123.4765625,-70.80078125,-43.45703125,-48.828125,-57.6171875
123.48046875,-49.8046875,-38.0859375,-44.43359375,-57.12890625
123.484375,-41.9921875,-39.0625,-42.96875,-57.6171875
123.48828125,-53.22265625,-40.52734375,-41.9921875,-50.78125
123.4921875,-56.15234375,-43.9453125,-42.48046875,-59.08203125
123.49609375,-50.29296875,-47.8515625,-43.9453125,-56.640625
123.5,-36.1328125,-45.8984375,-41.9921875,-58.59375
123.50390625,-37.59765625,-41.015625,-38.0859375,-52.734375
123.5078125,-53.22265625,-35.15625,-33.69140625,-36.62109375
123.51171875,-52.734375,-35.15625,-36.1328125,-37.109375
123.515625,-28.80859375,-39.55078125,-41.015625,-60.546875
123.51953125,-36.1328125,-41.015625,-40.0390625,-52.24609375
123.5234375,-64.453125,-39.55078125,-38.0859375,-37.59765625
123.52734375,-62.98828125,-40.0390625,-38.0859375,-44.43359375
123.53125,-35.64453125,-41.9921875,-43.9453125,-55.17578125
123.53515625,-19.04296875,-42.48046875,-45.41015625,-60.05859375
123.5390625,-42.96875,-46.875,-42.96875,-52.734375
123.54296875,-65.91796875,-48.33984375,-48.33984375,-46.875
123.546875,-55.17578125,-42.96875,-45.8984375,-50.29296875
123.55078125,-36.1328125,-39.55078125,-47.36328125,-40.52734375
123.5546875,-53.22265625,-45.8984375,-53.7109375,-44.921875
123.55859375,-57.12890625,-49.8046875,-52.24609375,-57.6171875
123.5625,-42.96875,-46.875,-47.8515625,-45.8984375
123.56640625,-39.55078125,-43.45703125,-46.875,-37.59765625
123.5703125,-44.921875,-42.96875,-45.41015625,-46.38671875
123.57421875,-55.17578125,-47.8515625,-44.921875,-35.64453125
123.578125,-67.3828125,-48.828125,-47.36328125,-44.921875
123.58203125,-55.17578125,-42.96875,-44.43359375,-67.87109375
123.5859375,-46.875,-42.48046875,-43.9453125,-57.6171875
123.58984375,-56.640625,-40.52734375,-42.48046875,-37.109375
123.59375,-60.05859375,-42.48046875,-38.0859375,-47.36328125
123.59765625,-52.24609375,-45.41015625,-45.41015625,-73.2421875
123.6015625,-48.33984375,-45.41015625,-51.26953125,-68.84765625
123.60546875,-66.89453125,-46.38671875,-47.8515625,-62.98828125
123.609375,-65.91796875,-46.38671875,-53.7109375,-55.6640625
123.61328125,-44.43359375,-42.48046875,-51.7578125,-47.8515625
123.6171875,-29.78515625,-44.43359375,-49.8046875,-53.22265625
123.62109375,-42.96875,-43.9453125,-49.31640625,-43.45703125
123.625,-62.01171875,-39.55078125,-41.015625,-14.16015625
123.62890625,-60.05859375,-37.59765625,-41.9921875,-36.62109375
123.6328125,-42.96875,-39.0625,-40.0390625,-50.29296875
123.63671875,-42.48046875,-44.921875,-40.52734375,-34.66796875
123.640625,-65.91796875,-44.43359375,-45.41015625,-38.0859375
123.64453125,-68.84765625,-42.48046875,-40.52734375,-63.96484375
123.6484375,-47.8515625,-42.96875,-38.0859375,-62.01171875
123.65234375,-43.45703125,-43.45703125,-36.1328125,-38.57421875
123.65625,-54.19921875,-46.875,-41.015625,-51.7578125
123.66015625,-55.6640625,-46.875,-45.41015625,-52.734375
123.6640625,-50.29296875,-45.8984375,-44.921875,-38.57421875
123.66796875,-44.921875,-39.0625,-43.45703125,-55.17578125
123.671875,-45.41015625,-38.0859375,-44.921875,-51.7578125
123.67578125,-42.96875,-39.55078125,-41.9921875,-37.109375
123.6796875,-44.921875,-39.0625,-48.828125,-42.48046875
123.68359375,-36.1328125,-39.0625,-50.78125,-36.62109375
123.6875,-29.78515625,-34.66796875,-37.109375,-33.69140625
123.69140625,-44.43359375,-38.0859375,-34.66796875,-20.01953125
123.6953125,-45.8984375,-45.8984375,-43.9453125,-47.36328125
123.69921875,-59.08203125,-46.875,-48.33984375,-72.75390625
123.703125,-58.10546875,-42.48046875,-41.50390625,-53.22265625
123.70703125,-75.1953125,-43.9453125,-44.921875,-60.546875
123.7109375,-98.14453125,-41.9921875,-51.26953125,-53.7109375
123.71484375,-67.87109375,-41.50390625,-50.29296875,-55.17578125
123.71875,-64.94140625,-45.41015625,-47.8515625,-73.2421875
123.72265625,-75.1953125,-43.45703125,-49.31640625,-65.4296875
123.7265625,-77.1484375,-46.875,-48.828125,-50.29296875
123.73046875,-57.6171875,-48.828125,-46.38671875,-49.8046875
123.734375,-18.5546875,-44.43359375,-46.38671875,-42.48046875
123.73828125,-51.7578125,-43.45703125,-46.38671875,-28.80859375
123.7421875,-80.078125,-41.50390625,-42.96875,-30.2734375
123.74609375,-45.41015625,-42.96875,-37.109375,-28.3203125
123.75,-49.8046875,-48.828125,-42.48046875,-32.71484375
123.75390625,-66.89453125,-48.33984375,-46.38671875,-45.41015625
123.7578125,-62.01171875,-45.41015625,-42.48046875,-43.9453125
123.76171875,-62.5,-42.96875,-39.55078125,-41.50390625
123.765625,-49.8046875,-43.45703125,-38.0859375,-44.43359375
123.76953125,-38.0859375,-41.9921875,-34.66796875,-39.0625
123.7734375,-46.875,-42.48046875,-33.69140625,-36.62109375
123.77734375,-63.96484375,-41.015625,-32.71484375,-38.0859375
123.78125,-52.24609375,-38.57421875,-33.69140625,-49.31640625
123.78515625,-39.0625,-42.96875,-39.55078125,-49.31640625
123.7890625,-60.546875,-43.9453125,-36.62109375,-41.015625
123.79296875,-68.359375,-43.9453125,-30.2734375,-46.38671875
123.796875,-42.48046875,-45.41015625,-35.15625,-36.62109375
123.80078125,-22.94921875,-46.875,-42.96875,-43.45703125
123.8046875,-35.15625,-47.8515625,-42.48046875,-66.40625
123.80859375,-59.08203125,-49.31640625,-37.109375,-38.0859375
123.8125,-70.3125,-44.43359375,-34.1796875,-38.57421875
123.81640625,-42.48046875,-39.55078125,-34.66796875,-55.17578125
123.8203125,-30.76171875,-37.109375,-36.1328125,-29.78515625
123.82421875,-56.15234375,-37.109375,-36.1328125,-25.87890625
123.828125,-61.03515625,-42.48046875,-36.62109375,-44.43359375
123.83203125,-40.52734375,-41.015625,-37.59765625,-43.9453125
123.8359375,-43.45703125,-41.9921875,-36.1328125,-36.1328125
123.83984375,-68.84765625,-42.96875,-31.25,-32.2265625
123.84375,-68.359375,-38.57421875,-31.25,-39.55078125
123.84765625,-34.66796875,-38.57421875,-33.69140625,-45.8984375
123.8515625,-31.25,-42.96875,-34.1796875,-41.50390625
123.85546875,-53.22265625,-40.52734375,-37.109375,-41.9921875
123.859375,-59.08203125,-41.50390625,-39.0625,-40.0390625
123.86328125,-53.22265625,-42.96875,-34.66796875,-48.33984375
123.8671875,-20.01953125,-44.43359375,-37.109375,-40.0390625
123.87109375,-37.109375,-47.8515625,-40.0390625,-10.25390625
123.875,-86.9140625,-48.828125,-41.50390625,-42.96875
123.87890625,-63.96484375,-45.41015625,-35.64453125,-53.22265625
123.8828125,-47.36328125,-43.45703125,-31.73828125,-37.59765625
123.88671875,-41.015625,-44.43359375,-36.1328125,-41.015625
123.890625,-23.4375,-42.48046875,-41.015625,-42.96875
123.89453125,-56.15234375,-44.43359375,-42.96875,-41.9921875
123.8984375,-56.640625,-45.41015625,-37.109375,-26.3671875
123.90234375,-40.0390625,-42.96875,-39.55078125,-45.8984375
123.90625,-61.5234375,-44.43359375,-44.43359375,-51.26953125
123.91015625,-51.7578125,-41.015625,-37.59765625,-35.15625
123.9140625,-21.97265625,-42.96875,-41.015625,-33.69140625
123.91796875,-27.83203125,-49.31640625,-42.48046875,-41.50390625
123.921875,-40.0390625,-45.41015625,-37.59765625,-49.31640625
123.92578125,-52.734375,-42.96875,-41.015625,-48.33984375
123.9296875,-44.43359375,-43.9453125,-40.52734375,-53.7109375
123.93359375,-33.203125,-43.9453125,-42.48046875,-48.828125
123.9375,-44.43359375,-46.38671875,-48.33984375,-42.96875
123.94140625,-51.26953125,-44.43359375,-41.9921875,-51.26953125
123.9453125,-46.875,-39.55078125,-32.71484375,-35.15625
123.94921875,-26.3671875,-40.0390625,-39.0625,-45.41015625
123.953125,-33.69140625,-41.50390625,-44.43359375,-59.5703125
123.95703125,-41.9921875,-44.921875,-42.96875,-50.78125
123.9609375,-29.296875,-47.8515625,-46.875,-48.828125
123.96484375,-36.1328125,-44.43359375,-49.8046875,-48.33984375
123.96875,-34.1796875,-43.45703125,-46.875,-50.78125
123.97265625,-49.8046875,-48.33984375,-44.921875,-43.45703125
123.9765625,-63.4765625,-51.7578125,-45.41015625,-29.78515625
123.98046875,-46.38671875,-51.7578125,-47.36328125,-53.22265625
123.984375,-36.62109375,-49.31640625,-48.828125,-51.26953125
123.98828125,-40.52734375,-46.875,-50.78125,-49.31640625
123.9921875,-48.828125,-45.41015625,-51.26953125,-58.59375
123.99609375,-43.45703125,-43.9453125,-55.6640625,-43.9453125
124.0,-43.9453125,-43.45703125,-52.24609375,-52.24609375
124.00390625,-49.8046875,-43.45703125,-40.52734375,-46.38671875
124.0078125,-40.0390625,-45.41015625,-37.59765625,-20.5078125
124.01171875,-18.06640625,-46.38671875,-39.0625,-6.34765625
124.015625,-33.69140625,-43.45703125,-33.69140625,-10.25390625
124.01953125,-34.66796875,-41.015625,-36.1328125,-9.27734375
124.0234375,-25.87890625,-41.9921875,-37.109375,-1.953125
124.02734375,-15.625,-43.45703125,-38.0859375,-0.9765625
124.03125,-0.9765625,-40.52734375,-37.59765625,3.41796875
124.03515625,0.9765625,-37.109375,-33.203125,4.39453125
124.0390625,-21.484375,-42.48046875,-35.64453125,10.25390625
124.04296875,-38.57421875,-45.41015625,-35.64453125,-1.953125
124.046875,-17.578125,-44.921875,-39.0625,-12.6953125
124.05078125,-6.34765625,-42.48046875,-37.59765625,-7.8125
124.0546875,-31.25,-43.45703125,-37.109375,-19.53125
124.05859375,-36.62109375,-43.9453125,-43.9453125,-9.765625
124.0625,-20.5078125,-44.43359375,-41.9921875,-11.71875
124.06640625,-2.9296875,-41.9921875,-38.0859375,-27.34375
124.0703125,-6.8359375,-42.48046875,-40.52734375,-20.5078125
124.07421875,-26.3671875,-47.36328125,-44.43359375,-27.34375
124.078125,-24.4140625,-48.828125,-45.41015625,-37.59765625
124.08203125,-3.90625,-49.31640625,-42.96875,-30.2734375
124.0859375,-8.30078125,-44.921875,-41.015625,-4.39453125
124.08984375,-35.64453125,-42.96875,-42.96875,-13.671875
124.09375,-33.69140625,-42.96875,-40.52734375,-30.76171875
124.09765625,0.0,-42.48046875,-38.57421875,-24.4140625
124.1015625,9.765625,-42.48046875,-41.015625,-20.99609375
124.10546875,-27.34375,-45.41015625,-45.8984375,-19.53125
124.109375,-25.87890625,-44.921875,-45.41015625,-19.04296875
124.11328125,7.8125,-42.96875,-45.8984375,-12.20703125
124.1171875,-6.8359375,-49.8046875,-51.26953125,-11.23046875
124.12109375,-20.5078125,-49.31640625,-48.33984375,-22.4609375
124.125,-12.6953125,-43.9453125,-44.43359375,-34.1796875
124.12890625,-19.04296875,-41.50390625,-43.45703125,-22.94921875
124.1328125,-9.765625,-38.57421875,-40.0390625,-12.6953125
124.13671875,-7.32421875,-40.0390625,-36.62109375,-28.3203125
124.140625,-44.43359375,-38.57421875,-36.62109375,-11.23046875
124.14453125,-55.6640625,-36.62109375,-37.109375,-18.06640625
124.1484375,-43.9453125,-41.9921875,-39.55078125,-29.296875
124.15234375,-54.19921875,-42.96875,-41.50390625,-17.578125
124.15625,-73.2421875,-44.921875,-45.41015625,-32.71484375
124.16015625,-71.77734375,-45.41015625,-43.45703125,-42.48046875
124.1640625,-41.015625,-42.96875,-41.50390625,-35.64453125
124.16796875,-30.76171875,-39.55078125,-39.0625,-22.94921875
124.171875,-44.43359375,-37.109375,-36.62109375,-1.46484375
124.17578125,-70.3125,-41.015625,-41.015625,-6.8359375
124.1796875,-60.05859375,-41.50390625,-39.0625,-43.45703125
124.18359375,-42.96875,-37.109375,-36.62109375,-42.96875
124.1875,-57.6171875,-33.69140625,-32.71484375,-24.90234375
124.19140625,-54.19921875,-33.203125,-36.62109375,-33.69140625
124.1953125,-56.640625,-39.55078125,-43.45703125,-36.62109375
124.19921875,-42.48046875,-39.0625,-42.96875,-22.94921875
124.203125,-54.6875,-39.55078125,-42.96875,-31.73828125
124.20703125,-72.265625,-39.55078125,-37.109375,-22.4609375
124.2109375,-56.15234375,-42.48046875,-36.1328125,-33.69140625
124.21484375,-38.57421875,-41.9921875,-35.64453125,-31.25
124.21875,-34.1796875,-39.0625,-37.59765625,-21.484375
124.22265625,-48.33984375,-41.015625,-40.0390625,-33.203125
124.2265625,-54.19921875,-35.15625,-39.0625,-30.2734375
124.23046875,-43.9453125,-32.2265625,-37.59765625,-36.62109375
124.234375,-38.57421875,-38.0859375,-41.9921875,-34.1796875
124.23828125,-59.08203125,-37.109375,-46.875,-45.8984375
124.2421875,-55.6640625,-34.66796875,-42.48046875,-42.96875
124.24609375,-43.45703125,-39.55078125,-45.41015625,-34.66796875
124.25,-47.8515625,-40.52734375,-46.875,-39.0625
124.25390625,-47.36328125,-41.015625,-39.55078125,-41.50390625
124.2578125,-51.26953125,-46.875,-39.55078125,-41.9921875
124.26171875,-40.0390625,-45.8984375,-39.0625,-41.015625
124.265625,-22.4609375,-35.64453125,-37.59765625,-42.48046875
124.26953125,-37.109375,-33.69140625,-39.0625,-42.48046875
124.2734375,-55.17578125,-36.62109375,-34.1796875,-19.04296875
124.27734375,-49.8046875,-39.55078125,-35.15625,-15.625
124.28125,-30.2734375,-41.50390625,-41.50390625,-39.55078125
124.28515625,-26.3671875,-40.0390625,-41.50390625,-35.64453125
124.2890625,-64.453125,-41.9921875,-41.9921875,-29.296875
124.29296875,-82.51953125,-40.52734375,-43.45703125,-37.109375
124.296875,-49.31640625,-39.0625,-39.0625,-14.16015625
124.30078125,-23.92578125,-41.50390625,-38.57421875,-23.92578125
124.3046875,-53.22265625,-41.015625,-41.015625,-50.78125
124.30859375,-72.265625,-38.0859375,-35.64453125,-32.2265625
124.3125,-42.48046875,-33.203125,-31.25,-33.69140625
124.31640625,-22.94921875,-38.57421875,-32.71484375,-41.9921875
124.3203125,-42.96875,-44.43359375,-33.69140625,-27.83203125
124.32421875,-59.5703125,-42.48046875,-35.64453125,-33.203125
124.328125,-55.17578125,-38.0859375,-37.109375,-33.203125
124.33203125,-41.015625,-36.1328125,-37.59765625,-34.1796875
124.3359375,-38.57421875,-45.8984375,-41.50390625,-31.25
124.33984375,-57.6171875,-41.50390625,-41.50390625,-32.2265625
124.34375,-54.6875,-37.109375,-39.0625,-28.80859375
124.34765625,-30.76171875,-41.50390625,-41.50390625,-20.01953125
124.3515625,-25.87890625,-38.0859375,-39.55078125,-33.69140625
124.35546875,-27.83203125,-36.62109375,-32.2265625,-29.296875
124.359375,-32.2265625,-37.109375,-33.69140625,-13.18359375
124.36328125,-34.66796875,-39.0625,-40.0390625,-19.04296875
124.3671875,-29.78515625,-40.0390625,-38.57421875,-31.25
124.37109375,-35.64453125,-39.55078125,-38.57421875,-41.015625
124.375,-49.8046875,-41.9921875,-39.55078125,-39.0625
124.37890625,-46.38671875,-38.57421875,-39.0625,-35.64453125
124.3828125,-22.94921875,-41.9921875,-42.96875,-52.24609375
124.38671875,-35.15625,-43.45703125,-44.921875,-42.96875
124.390625,-43.9453125,-40.0390625,-47.8515625,-14.6484375
124.39453125,-15.13671875,-42.96875,-51.26953125,-0.48828125
124.3984375,-11.23046875,-41.9921875,-47.8515625,-25.87890625
124.40234375,-45.8984375,-36.62109375,-43.9453125,-64.453125
124.40625,-66.89453125,-37.109375,-49.31640625,-64.94140625
124.41015625,-73.2421875,-40.52734375,-52.24609375,-70.80078125
124.4140625,-69.3359375,-41.015625,-53.22265625,-91.30859375
124.41796875,-75.68359375,-39.55078125,-54.6875,-100.09765625
124.421875,-93.26171875,-39.55078125,-46.875,-103.02734375
124.42578125,-104.00390625,-36.62109375,-46.875,-105.46875
124.4296875,-86.42578125,-34.66796875,-51.26953125,-115.72265625
124.43359375,-86.9140625,-41.015625,-48.828125,-134.27734375
124.4375,-103.515625,-37.59765625,-47.36328125,-114.2578125
124.44140625,-100.09765625,-36.1328125,-44.921875,-86.42578125
124.4453125,-88.37890625,-42.48046875,-45.41015625,-95.21484375
124.44921875,-70.3125,-38.0859375,-45.8984375,-96.6796875
124.453125,-86.9140625,-34.1796875,-43.9453125,-95.703125
124.45703125,-89.35546875,-34.66796875,-45.8984375,-96.19140625
124.4609375,-72.265625,-31.73828125,-45.41015625,-91.796875
124.46484375,-64.94140625,-31.73828125,-46.38671875,-83.984375
124.46875,-55.17578125,-34.1796875,-44.43359375,-71.77734375
124.47265625,-56.15234375,-38.57421875,-44.921875,-69.82421875
124.4765625,-61.5234375,-41.015625,-49.31640625,-79.1015625
124.48046875,-53.7109375,-34.1796875,-46.875,-74.21875
124.484375,-47.8515625,-32.2265625,-44.43359375,-65.4296875
124.48828125,-57.6171875,-34.66796875,-41.9921875,-61.5234375
124.4921875,-77.63671875,-35.64453125,-39.0625,-49.8046875
124.49609375,-74.21875,-35.64453125,-38.57421875,-46.875
124.5,-52.24609375,-37.59765625,-39.0625,-46.38671875
124.50390625,-61.03515625,-40.52734375,-44.43359375,-52.734375
124.5078125,-77.1484375,-40.0390625,-41.9921875,-58.59375
124.51171875,-58.10546875,-35.64453125,-33.69140625,-55.17578125
124.515625,-48.33984375,-35.15625,-34.1796875,-52.734375
124.51953125,-56.640625,-37.109375,-34.1796875,-37.109375
124.5234375,-52.24609375,-39.0625,-39.55078125,-54.19921875
124.52734375,-58.10546875,-42.48046875,-43.9453125,-72.75390625
124.53125,-59.5703125,-36.62109375,-38.57421875,-54.6875
124.53515625,-47.36328125,-35.15625,-38.57421875,-63.4765625
124.5390625,-42.96875,-40.52734375,-42.96875,-79.1015625
124.54296875,-71.77734375,-36.62109375,-39.55078125,-44.43359375
124.546875,-42.96875,-33.203125,-31.73828125,-23.4375
124.55078125,-35.64453125,-36.62109375,-31.25,-58.10546875
124.5546875,-65.91796875,-40.0390625,-37.59765625,-65.4296875
124.55859375,-63.96484375,-40.0390625,-38.0859375,-41.015625
124.5625,-54.6875,-33.203125,-35.15625,-41.9921875
124.56640625,-36.62109375,-30.76171875,-39.0625,-60.05859375
124.5703125,-40.52734375,-37.59765625,-46.38671875,-73.73046875
124.57421875,-72.265625,-42.96875,-43.9453125,-62.5
124.578125,-65.4296875,-37.109375,-39.0625,-54.19921875
124.58203125,-42.96875,-40.52734375,-41.015625,-60.546875
124.5859375,-47.36328125,-46.38671875,-43.9453125,-47.8515625
124.58984375,-54.19921875,-40.0390625,-42.96875,-50.29296875
124.59375,-60.546875,-37.59765625,-40.0390625,-53.7109375
124.59765625,-33.69140625,-36.62109375,-40.0390625,-42.96875
124.6015625,-20.5078125,-32.2265625,-36.62109375,-48.33984375
124.60546875,-42.48046875,-29.78515625,-33.69140625,-43.45703125
124.609375,-46.875,-26.3671875,-33.69140625,-32.2265625
124.61328125,-40.52734375,-29.296875,-36.1328125,-34.66796875
124.6171875,-33.69140625,-41.9921875,-39.55078125,-23.92578125
124.62109375,-37.109375,-40.52734375,-37.109375,-15.13671875
124.625,-53.22265625,-37.59765625,-38.0859375,-34.66796875
124.62890625,-50.78125,-41.9921875,-42.48046875,-62.5
124.6328125,-43.9453125,-39.55078125,-43.9453125,-55.17578125
124.63671875,-39.55078125,-36.1328125,-43.45703125,-41.50390625
124.640625,-48.33984375,-35.15625,-40.52734375,-37.109375
124.64453125,-54.19921875,-38.57421875,-36.1328125,-32.71484375
124.6484375,-46.875,-38.0859375,-35.64453125,-28.80859375
124.65234375,-41.50390625,-37.109375,-37.59765625,-45.41015625
124.65625,-58.10546875,-38.57421875,-39.55078125,-48.828125
124.66015625,-70.80078125,-36.1328125,-38.0859375,-48.33984375
124.6640625,-45.41015625,-39.55078125,-41.9921875,-60.546875
124.66796875,-19.04296875,-41.50390625,-45.41015625,-42.96875
124.671875,-32.71484375,-42.48046875,-43.9453125,-44.921875
124.67578125,-65.4296875,-42.96875,-43.45703125,-61.5234375
124.6796875,-59.08203125,-40.0390625,-46.875,-66.89453125
124.68359375,-41.015625,-41.9921875,-50.29296875,-72.75390625
124.6875,-58.59375,-42.96875,-54.6875,-60.05859375
124.69140625,-72.265625,-41.50390625,-55.6640625,-66.89453125
124.6953125,-71.77734375,-40.52734375,-48.828125,-70.3125
124.69921875,-58.10546875,-38.57421875,-44.921875,-64.453125
124.703125,-44.921875,-35.64453125,-41.015625,-49.31640625
124.70703125,-53.7109375,-33.203125,-36.1328125,-33.69140625
124.7109375,-62.98828125,-39.55078125,-41.015625,-34.1796875
124.71484375,-43.45703125,-41.015625,-42.48046875,-30.76171875
124.71875,-41.9921875,-40.52734375,-41.9921875,-17.08984375
124.72265625,-53.7109375,-41.9921875,-43.45703125,-43.45703125
124.7265625,-46.38671875,-40.0390625,-38.0859375,-44.43359375
124.73046875,-39.0625,-36.1328125,-39.55078125,-36.1328125
124.734375,-25.87890625,-41.50390625,-41.50390625,-38.57421875
124.73828125,-44.921875,-42.96875,-36.62109375,-47.36328125
124.7421875,-62.01171875,-39.55078125,-37.59765625,-47.36328125
124.74609375,-54.19921875,-38.57421875,-38.57421875,-41.50390625
124.75,-28.80859375,-32.71484375,-34.66796875,-35.64453125
124.75390625,-37.59765625,-30.2734375,-32.2265625,-35.15625
124.7578125,-53.7109375,-36.62109375,-36.62109375,-24.90234375
124.76171875,-41.9921875,-34.66796875,-38.57421875,-8.30078125
124.765625,-26.85546875,-37.109375,-35.64453125,-28.3203125
124.76953125,-19.04296875,-40.0390625,-37.109375,-48.828125
124.7734375,-49.31640625,-37.59765625,-38.57421875,-38.0859375
124.77734375,-64.453125,-34.1796875,-32.71484375,-23.92578125
124.78125,-38.57421875,-32.71484375,-33.203125,-40.52734375
124.78515625,-26.85546875,-35.15625,-41.50390625,-44.43359375
124.7890625,-48.828125,-37.109375,-42.48046875,-36.1328125
124.79296875,-55.6640625,-37.109375,-39.55078125,-37.109375
124.796875,-31.25,-35.64453125,-40.0390625,-33.69140625
124.80078125,-16.11328125,-31.73828125,-40.0390625,-28.3203125
124.8046875,-35.15625,-38.57421875,-43.45703125,-41.9921875
124.80859375,-59.08203125,-44.43359375,-42.96875,-34.1796875
124.8125,-49.31640625,-41.50390625,-42.96875,-35.64453125
124.81640625,-35.64453125,-43.9453125,-46.38671875,-55.17578125
124.8203125,-40.52734375,-44.921875,-42.48046875,-46.875
124.82421875,-49.31640625,-38.0859375,-38.57421875,-29.78515625
124.828125,-39.55078125,-40.0390625,-38.57421875,-33.203125
124.83203125,-30.2734375,-45.41015625,-39.0625,-44.921875
124.8359375,-26.85546875,-41.9921875,-40.0390625,-50.29296875
124.83984375,-37.109375,-39.55078125,-36.62109375,-45.8984375
124.84375,-39.55078125,-37.59765625,-29.78515625,-34.1796875
124.84765625,0.0,-36.1328125,-28.80859375,-13.671875
124.8515625,4.39453125,-39.0625,-29.296875,-23.92578125
124.85546875,-20.99609375,-41.015625,-27.83203125,-39.55078125
124.859375,-20.01953125,-37.109375,-24.90234375,-26.85546875
124.86328125,-7.32421875,-30.76171875,-23.4375,-28.3203125
124.8671875,6.8359375,-30.76171875,-26.85546875,-25.87890625
124.87109375,5.859375,-33.203125,-29.78515625,-26.3671875
124.875,-14.6484375,-36.1328125,-33.203125,-44.921875
124.87890625,-27.34375,-36.1328125,-35.64453125,-40.0390625
124.8828125,2.9296875,-34.66796875,-31.25,-31.25
124.88671875,-18.06640625,-33.203125,-35.15625,-31.73828125
124.890625,-50.29296875,-34.66796875,-35.15625,-42.48046875
124.89453125,-36.1328125,-32.2265625,-31.25,-36.62109375
124.8984375,-20.5078125,-32.2265625,-35.64453125,-23.92578125
124.90234375,-14.6484375,-30.76171875,-35.15625,-32.71484375
124.90625,-27.83203125,-32.71484375,-33.203125,-31.73828125
124.91015625,-30.76171875,-36.62109375,-35.64453125,-8.7890625
124.9140625,-7.8125,-32.2265625,-36.62109375,-21.484375
124.91796875,-5.37109375,-30.76171875,-37.59765625,-36.62109375
124.921875,-30.2734375,-31.25,-31.25,-24.4140625
124.92578125,-34.66796875,-29.78515625,-27.34375,-18.5546875
124.9296875,-19.53125,-28.80859375,-27.83203125,-19.53125
124.93359375,-12.20703125,-31.73828125,-29.78515625,-28.3203125
124.9375,-28.3203125,-34.66796875,-33.69140625,-26.85546875
124.94140625,-30.2734375,-30.76171875,-26.85546875,-18.06640625
124.9453125,-26.3671875,-38.0859375,-22.94921875,-23.4375
124.94921875,-11.71875,-40.0390625,-28.3203125,-21.97265625
124.953125,-27.34375,-37.109375,-33.203125,-24.4140625
124.95703125,-55.17578125,-40.52734375,-33.69140625,-36.1328125
124.9609375,-55.6640625,-38.0859375,-30.2734375,-29.78515625
124.96484375,-43.9453125,-34.1796875,-29.78515625,-19.04296875
124.96875,-23.4375,-33.69140625,-29.296875,-37.109375
124.97265625,-28.3203125,-33.203125,-26.3671875,-42.48046875
124.9765625,-38.0859375,-40.0390625,-31.73828125,-37.109375
124.98046875,-28.80859375,-41.015625,-33.69140625,-40.52734375
124.984375,-31.25,-39.0625,-33.69140625,-45.41015625
124.98828125,-40.52734375,-39.0625,-36.62109375,-39.0625
124.9921875,-40.0390625,-42.48046875,-35.15625,-39.55078125
124.99609375,-35.15625,-46.38671875,-36.62109375,-35.64453125
125.0,-27.34375,-40.52734375,-34.1796875,-36.62109375
125.00390625,-25.390625,-37.109375,-35.15625,-35.64453125
125.0078125,-46.875,-40.0390625,-39.55078125,-31.73828125
125.01171875,-39.55078125,-40.0390625,-38.0859375,-39.0625
125.015625,-7.8125,-39.55078125,-39.0625,-44.43359375
125.01953125,-12.20703125,-38.57421875,-40.52734375,-44.43359375
125.0234375,-34.1796875,-38.57421875,-39.0625,-40.0390625
125.02734375,-42.96875,-38.0859375,-41.50390625,-42.96875
125.03125,-17.578125,-37.59765625,-39.0625,-38.0859375
125.03515625,-5.859375,-37.59765625,-38.57421875,-39.0625
125.0390625,-25.390625,-40.52734375,-41.50390625,-33.69140625
125.04296875,-34.1796875,-41.9921875,-39.0625,-33.69140625
125.046875,-32.2265625,-39.0625,-41.015625,-37.109375
125.05078125,-18.06640625,-36.62109375,-44.43359375,-32.71484375
125.0546875,-23.92578125,-38.57421875,-42.96875,-28.80859375
125.05859375,-44.43359375,-39.0625,-42.96875,-41.50390625
125.0625,-41.50390625,-33.69140625,-40.0390625,-38.0859375
125.06640625,-24.4140625,-39.0625,-43.9453125,-25.390625
125.0703125,-33.69140625,-43.45703125,-47.8515625,-36.62109375
125.07421875,-45.41015625,-42.48046875,-47.8515625,-46.38671875
125.078125,-46.38671875,-48.33984375,-46.875,-31.25
125.08203125,-32.2265625,-40.52734375,-43.45703125,-40.52734375
125.0859375,-26.3671875,-38.57421875,-46.875,-51.7578125
125.08984375,-44.43359375,-40.52734375,-44.43359375,-48.828125
125.09375,-50.78125,-40.0390625,-40.52734375,-40.0390625
125.09765625,-24.90234375,-43.9453125,-38.0859375,-33.69140625
125.1015625,-11.71875,-39.55078125,-33.69140625,-24.4140625
125.10546875,-32.2265625,-38.0859375,-30.76171875,-16.6015625
125.109375,-45.41015625,-41.015625,-33.203125,-45.8984375
125.11328125,-40.0390625,-41.50390625,-35.15625,-49.8046875
125.1171875,-30.76171875,-41.015625,-36.1328125,-35.64453125
125.12109375,-31.25,-38.57421875,-39.0625,-31.73828125
125.125,-41.015625,-37.109375,-38.57421875,-44.43359375
125.12890625,-27.34375,-33.203125,-34.66796875,-46.875
125.1328125,-7.8125,-34.66796875,-38.0859375,-36.1328125
125.13671875,-20.5078125,-39.0625,-40.52734375,-41.50390625
125.140625,-29.296875,-37.59765625,-36.1328125,-38.0859375
125.14453125,-37.59765625,-39.55078125,-36.62109375,-29.296875
125.1484375,-24.4140625,-40.0390625,-41.50390625,-39.0625
125.15234375,-8.7890625,-40.52734375,-47.8515625,-50.78125
125.15625,-34.1796875,-44.43359375,-48.33984375,-59.5703125
125.16015625,-32.2265625,-44.43359375,-46.875,-45.8984375
125.1640625,22.94921875,-39.55078125,-45.8984375,-22.4609375
125.16796875,43.9453125,-34.1796875,-41.50390625,-15.13671875
125.171875,-2.9296875,-40.52734375,-32.71484375,-30.76171875
125.17578125,-42.48046875,-43.45703125,-19.04296875,-37.109375
125.1796875,-45.41015625,-41.9921875,-14.16015625,-33.203125
125.18359375,-35.64453125,-40.52734375,-15.13671875,-41.50390625
125.1875,-63.96484375,-44.43359375,-20.01953125,-40.52734375
125.19140625,-104.98046875,-45.8984375,-23.4375,-34.66796875
125.1953125,-96.19140625,-47.8515625,-28.80859375,-40.0390625
125.19921875,-62.01171875,-45.41015625,-30.2734375,-33.69140625
125.203125,-61.03515625,-39.0625,-31.25,-19.04296875
125.20703125,-75.1953125,-36.62109375,-30.2734375,-27.34375
125.2109375,-71.77734375,-38.57421875,-24.90234375,-41.015625
125.21484375,-66.40625,-35.15625,-27.83203125,-37.59765625
125.21875,-61.5234375,-37.109375,-34.1796875,-41.50390625
125.22265625,-63.96484375,-40.52734375,-33.69140625,-41.50390625
125.2265625,-75.68359375,-41.50390625,-32.71484375,-41.50390625
125.23046875,-62.01171875,-39.0625,-34.66796875,-39.55078125
125.234375,-45.8984375,-37.109375,-30.76171875,-7.8125
125.23828125,-59.08203125,-38.0859375,-30.2734375,-21.97265625
125.2421875,-74.21875,-39.0625,-31.73828125,-54.19921875
125.24609375,-64.94140625,-41.50390625,-33.69140625,-42.48046875
125.25,-46.875,-34.66796875,-34.1796875,-36.1328125
125.25390625,-60.546875,-34.1796875,-33.203125,-39.0625
125.2578125,-80.56640625,-37.59765625,-35.15625,-42.96875
125.26171875,-76.66015625,-35.15625,-34.66796875,-35.64453125
125.265625,-56.15234375,-32.2265625,-31.73828125,-34.1796875
125.26953125,-55.17578125,-32.2265625,-28.3203125,-39.0625
125.2734375,-78.61328125,-40.52734375,-29.78515625,-43.45703125
125.27734375,-77.1484375,-41.015625,-35.64453125,-33.69140625
125.28125,-64.453125,-36.1328125,-36.1328125,-20.5078125
125.28515625,-48.828125,-37.109375,-34.66796875,-33.203125
125.2890625,-52.24609375,-37.109375,-35.64453125,-34.66796875
125.29296875,-70.80078125,-37.59765625,-40.52734375,-39.0625
125.296875,-47.8515625,-34.66796875,-35.15625,-29.296875
125.30078125,-33.69140625,-36.62109375,-33.69140625,-18.5546875
125.3046875,-65.91796875,-34.1796875,-37.109375,-39.55078125
125.30859375,-62.5,-30.76171875,-30.2734375,-55.6640625
125.3125,-47.8515625,-31.73828125,-29.296875,-44.921875
125.31640625,-42.48046875,-30.2734375,-34.66796875,-41.015625
125.3203125,-50.78125,-36.62109375,-36.62109375,-52.734375
125.32421875,-66.40625,-36.62109375,-35.15625,-44.921875
125.328125,-48.828125,-41.9921875,-38.0859375,-37.59765625
125.33203125,-36.1328125,-42.48046875,-41.9921875,-45.41015625
125.3359375,-50.29296875,-39.55078125,-35.64453125,-40.52734375
125.33984375,-60.546875,-38.57421875,-33.203125,-25.390625
125.34375,-51.26953125,-36.62109375,-31.25,-35.64453125
125.34765625,-29.296875,-41.50390625,-33.69140625,-45.41015625
125.3515625,-28.80859375,-41.50390625,-38.57421875,-38.0859375
125.35546875,-52.24609375,-34.66796875,-31.73828125,-41.9921875
125.359375,-63.4765625,-38.0859375,-35.64453125,-42.96875
125.36328125,-60.05859375,-42.96875,-41.9921875,-44.43359375
125.3671875,-48.828125,-42.48046875,-44.43359375,-63.4765625
125.37109375,-51.7578125,-44.43359375,-48.828125,-54.19921875
125.375,-63.96484375,-45.41015625,-45.8984375,-41.9921875
125.37890625,-52.24609375,-43.9453125,-38.57421875,-42.48046875
125.3828125,-40.52734375,-41.9921875,-39.0625,-29.78515625
125.38671875,-44.43359375,-39.55078125,-41.015625,-36.62109375
125.390625,-64.94140625,-37.59765625,-38.0859375,-40.0390625
125.39453125,-68.84765625,-40.0390625,-36.62109375,-42.48046875
125.3984375,-47.8515625,-46.875,-42.96875,-41.9921875
125.40234375,-40.52734375,-47.36328125,-46.38671875,-46.875
125.40625,-61.03515625,-44.921875,-44.921875,-50.29296875
125.41015625,-57.12890625,-43.45703125,-50.29296875,-39.0625
125.4140625,-21.484375,-45.8984375,-52.734375,-34.1796875
125.41796875,-10.7421875,-48.33984375,-46.875,-29.78515625
125.421875,-36.1328125,-46.875,-35.15625,-27.34375
125.42578125,-32.71484375,-42.96875,-29.78515625,-15.13671875
125.4296875,1.953125,-41.015625,-26.3671875,10.7421875
125.43359375,11.71875,-42.96875,-25.390625,26.3671875
125.4375,15.13671875,-48.828125,-30.2734375,35.15625
125.44140625,13.671875,-48.828125,-32.2265625,41.9921875
125.4453125,22.4609375,-48.828125,-35.15625,52.24609375
125.44921875,57.12890625,-47.8515625,-38.0859375,76.66015625
125.453125,62.98828125,-45.8984375,-39.55078125,69.82421875
125.45703125,47.36328125,-40.52734375,-33.69140625,63.96484375
125.4609375,48.33984375,-42.48046875,-34.66796875,79.58984375
125.46484375,76.171875,-41.50390625,-39.0625,90.8203125
125.46875,94.23828125,-39.0625,-34.66796875,95.21484375
125.47265625,64.94140625,-43.9453125,-38.0859375,91.796875
125.4765625,42.96875,-44.921875,-41.015625,92.28515625
125.48046875,53.22265625,-41.9921875,-39.55078125,87.890625
125.484375,57.12890625,-39.0625,-34.66796875,78.125
125.48828125,37.59765625,-37.109375,-32.2265625,80.56640625
125.4921875,23.4375,-39.55078125,-33.69140625,69.82421875
125.49609375,44.921875,-37.59765625,-32.71484375,62.98828125
125.5,62.01171875,-34.66796875,-30.76171875,89.35546875
125.50390625,60.05859375,-34.1796875,-30.2734375,87.890625
125.5078125,50.78125,-35.64453125,-30.2734375,84.9609375
125.51171875,30.76171875,-37.59765625,-31.25,68.84765625
125.515625,46.38671875,-39.55078125,-33.69140625,53.7109375
125.51953125,55.17578125,-36.62109375,-30.2734375,48.828125
125.5234375,32.2265625,-34.1796875,-25.390625,50.29296875
125.52734375,30.2734375,-32.2265625,-26.3671875,44.921875
125.53125,42.48046875,-32.71484375,-30.2734375,37.59765625
125.53515625,38.0859375,-39.0625,-35.64453125,42.48046875
125.5390625,30.76171875,-34.66796875,-32.2265625,41.015625
125.54296875,21.484375,-34.1796875,-26.3671875,36.62109375
125.546875,25.390625,-34.66796875,-27.34375,31.25
125.55078125,38.57421875,-33.203125,-31.25,33.203125
125.5546875,16.11328125,-44.43359375,-37.109375,28.80859375
125.55859375,5.37109375,-40.0390625,-30.76171875,32.2265625
125.5625,21.97265625,-35.64453125,-27.34375,24.90234375
125.56640625,39.0625,-33.69140625,-24.90234375,12.6953125
125.5703125,27.34375,-32.71484375,-24.90234375,18.06640625
125.57421875,3.41796875,-36.1328125,-30.2734375,21.97265625
125.578125,7.8125,-32.2265625,-26.85546875,30.2734375
125.58203125,27.83203125,-28.80859375,-25.390625,25.390625
125.5859375,23.92578125,-32.2265625,-27.83203125,10.25390625
125.58984375,10.7421875,-31.73828125,-27.34375,7.32421875
125.59375,13.18359375,-25.87890625,-25.390625,9.765625
125.59765625,26.85546875,-26.85546875,-28.3203125,0.0
125.6015625,37.109375,-33.203125,-31.25,1.46484375
125.60546875,18.06640625,-33.203125,-31.25,-2.9296875
125.609375,4.8828125,-30.76171875,-30.2734375,-7.8125
125.61328125,15.625,-33.203125,-29.78515625,-4.39453125
125.6171875,25.87890625,-39.0625,-35.15625,-18.5546875
125.62109375,13.671875,-36.1328125,-35.15625,-20.99609375
125.625,-3.90625,-35.15625,-32.2265625,-14.6484375
125.62890625,-0.48828125,-35.64453125,-35.15625,-20.01953125
125.6328125,20.99609375,-35.64453125,-36.1328125,-16.6015625
125.63671875,27.34375,-37.109375,-32.71484375,-15.13671875
125.640625,14.16015625,-32.71484375,-29.78515625,-4.8828125
125.64453125,14.16015625,-27.34375,-32.2265625,0.48828125
125.6484375,40.52734375,-30.76171875,-36.1328125,-2.44140625
125.65234375,40.52734375,-34.1796875,-37.59765625,-9.765625
125.65625,15.13671875,-37.109375,-41.50390625,-24.90234375
125.66015625,17.08984375,-33.203125,-36.62109375,-27.34375
125.6640625,37.59765625,-31.25,-36.1328125,-25.87890625
125.66796875,41.9921875,-32.2265625,-37.59765625,-20.01953125
125.671875,33.203125,-29.296875,-33.203125,-18.06640625
125.67578125,24.90234375,-30.2734375,-32.2265625,-22.94921875
125.6796875,28.3203125,-36.62109375,-33.69140625,-20.5078125
125.68359375,40.0390625,-35.64453125,-34.1796875,-13.671875
125.6875,33.203125,-35.64453125,-33.69140625,-18.06640625
125.69140625,24.4140625,-34.1796875,-28.80859375,-23.92578125
125.6953125,37.109375,-38.57421875,-33.69140625,-16.11328125
125.69921875,45.8984375,-39.0625,-38.0859375,-18.5546875
125.703125,36.62109375,-33.203125,-38.57421875,-17.578125
125.70703125,16.6015625,-33.203125,-38.57421875,-3.90625
125.7109375,7.8125,-37.109375,-38.0859375,-22.4609375
125.71484375,29.296875,-37.109375,-41.9921875,-26.85546875
125.71875,38.0859375,-32.71484375,-40.52734375,-8.7890625
125.72265625,14.6484375,-30.76171875,-31.25,-10.7421875
125.7265625,8.30078125,-29.78515625,-30.2734375,-16.6015625
125.73046875,22.94921875,-27.34375,-35.64453125,-11.71875
125.734375,30.2734375,-31.25,-32.2265625,-10.7421875
125.73828125,25.87890625,-34.1796875,-30.2734375,-9.27734375
125.7421875,18.06640625,-39.0625,-31.73828125,-7.32421875
125.74609375,25.390625,-37.109375,-34.1796875,-17.578125
125.75,37.59765625,-34.66796875,-36.62109375,-22.4609375
125.75390625,26.85546875,-38.57421875,-34.66796875,-17.578125
125.7578125,9.765625,-39.0625,-33.203125,-18.5546875
125.76171875,19.04296875,-33.69140625,-33.203125,-10.7421875
125.765625,46.38671875,-33.203125,-29.296875,-11.23046875
125.76953125,33.203125,-37.109375,-31.73828125,-25.390625
125.7734375,6.34765625,-41.015625,-36.62109375,-20.99609375
125.77734375,11.23046875,-38.0859375,-40.0390625,-26.85546875
125.78125,19.53125,-36.1328125,-39.55078125,-29.296875
125.78515625,24.4140625,-33.203125,-35.64453125,-26.3671875
125.7890625,1.46484375,-30.2734375,-34.66796875,-35.15625
125.79296875,-1.46484375,-32.71484375,-38.0859375,-31.25
125.796875,17.08984375,-36.1328125,-35.64453125,-19.04296875
125.80078125,21.97265625,-30.2734375,-34.1796875,-32.2265625
125.8046875,17.578125,-31.73828125,-35.64453125,-30.2734375
125.80859375,5.859375,-30.76171875,-31.73828125,-19.53125
125.8125,0.9765625,-25.390625,-30.76171875,-20.01953125
125.81640625,11.71875,-30.2734375,-38.0859375,-28.80859375
125.8203125,9.27734375,-34.66796875,-40.0390625,-23.92578125
125.82421875,-11.71875,-30.2734375,-34.66796875,-28.80859375
125.828125,-10.25390625,-26.85546875,-29.78515625,-30.2734375
125.83203125,4.39453125,-30.2734375,-31.73828125,-17.578125
125.8359375,3.41796875,-40.52734375,-38.0859375,-27.83203125
125.83984375,-10.7421875,-40.52734375,-37.109375,-38.0859375
125.84375,-14.6484375,-34.1796875,-27.34375,-28.3203125
125.84765625,7.8125,-34.66796875,-29.78515625,-20.5078125
125.8515625,4.39453125,-41.50390625,-39.0625,-27.34375
125.85546875,-13.671875,-41.9921875,-39.55078125,-29.296875
125.859375,-9.27734375,-37.109375,-38.0859375,-31.73828125
125.86328125,5.37109375,-36.62109375,-41.015625,-25.87890625
125.8671875,19.04296875,-33.69140625,-40.0390625,-14.16015625
125.87109375,4.39453125,-32.71484375,-35.64453125,-33.203125
125.875,-17.08984375,-33.69140625,-32.71484375,-31.25
125.87890625,-15.625,-33.203125,-36.1328125,-21.484375
125.8828125,-6.34765625,-37.109375,-44.43359375,-38.0859375
125.88671875,-12.6953125,-39.55078125,-40.52734375,-40.0390625
125.890625,-28.3203125,-39.0625,-33.69140625,-28.80859375
125.89453125,-33.203125,-40.52734375,-36.1328125,-41.9921875
125.8984375,-19.04296875,-41.015625,-36.62109375,-51.26953125
125.90234375,-13.18359375,-34.66796875,-34.1796875,-47.8515625
125.90625,-28.3203125,-30.76171875,-22.94921875,-34.1796875
125.91015625,-22.94921875,-32.2265625,-8.30078125,-20.99609375
125.9140625,-6.8359375,-33.203125,-17.08984375,-31.25
125.91796875,-18.5546875,-33.203125,-24.4140625,-38.57421875
125.921875,-37.109375,-33.203125,-18.06640625,-35.64453125
125.92578125,-48.33984375,-30.2734375,-21.97265625,-44.43359375
125.9296875,-62.5,-38.57421875,-28.80859375,-69.3359375
125.93359375,-57.12890625,-38.57421875,-11.23046875,-64.94140625
125.9375,-38.0859375,-36.62109375,-6.8359375,-34.1796875
125.94140625,-59.08203125,-41.015625,-13.18359375,-48.33984375
125.9453125,-113.76953125,-41.9921875,-7.8125,-113.76953125
125.94921875,-120.60546875,-36.62109375,1.46484375,-144.04296875
125.953125,-126.953125,-39.55078125,1.953125,-145.01953125
125.95703125,-173.828125,-42.96875,1.46484375,-164.55078125
125.9609375,-208.0078125,-41.9921875,0.48828125,-202.63671875
125.96484375,-206.0546875,-39.0625,2.9296875,-214.35546875
125.96875,-212.40234375,-33.69140625,1.953125,-244.140625
125.97265625,-229.4921875,-37.59765625,-13.18359375,-250.9765625
125.9765625,-255.859375,-43.45703125,-15.13671875,-241.69921875
125.98046875,-257.8125,-39.0625,-15.13671875,-257.8125
125.984375,-228.02734375,-37.59765625,-27.83203125,-271.484375
125.98828125,-244.62890625,-38.0859375,-30.2734375,-290.52734375
125.9921875,-275.390625,-36.62109375,-30.76171875,-283.203125
125.99609375,-257.32421875,-32.2265625,-27.34375,-265.13671875
126.0,-226.07421875,-28.3203125,-24.4140625,-270.5078125
126.00390625,-207.03125,-33.203125,-35.64453125,-236.81640625
126.0078125,-209.47265625,-35.64453125,-39.0625,-230.95703125
126.01171875,-217.7734375,-30.2734375,-35.64453125,-250.0
126.015625,-177.734375,-35.15625,-50.78125,-227.5390625
126.01953125,-159.1796875,-39.0625,-52.734375,-199.70703125
126.0234375,-166.9921875,-39.0625,-50.78125,-198.73046875
126.02734375,-154.78515625,-37.109375,-58.59375,-194.3359375
126.03125,-132.32421875,-41.9921875,-53.22265625,-171.38671875
126.03515625,-121.09375,-50.29296875,-60.546875,-169.43359375
126.0390625,-137.6953125,-48.828125,-69.82421875,-146.484375
126.04296875,-139.16015625,-44.43359375,-62.98828125,-132.32421875
126.046875,-105.46875,-41.015625,-62.98828125,-141.6015625
126.05078125,-81.0546875,-42.48046875,-73.2421875,-138.671875
126.0546875,-82.51953125,-46.875,-74.70703125,-125.0
126.05859375,-93.75,-43.45703125,-67.3828125,-105.95703125
126.0625,-100.09765625,-46.875,-74.70703125,-110.83984375
126.06640625,-86.42578125,-48.828125,-74.21875,-100.5859375
126.0703125,-80.078125,-46.38671875,-64.94140625,-93.26171875
126.07421875,-92.7734375,-53.22265625,-69.82421875,-99.609375
126.078125,-78.125,-55.6640625,-72.265625,-81.0546875
126.08203125,-53.22265625,-51.7578125,-67.87109375,-61.5234375
126.0859375,-50.29296875,-46.38671875,-68.359375,-58.10546875
126.08984375,-50.78125,-38.0859375,-65.91796875,-51.26953125
126.09375,-29.296875,-36.1328125,-62.5,-31.25
126.09765625,-18.06640625,-38.0859375,-57.6171875,-30.76171875
126.1015625,-17.08984375,-39.55078125,-62.01171875,-33.69140625
126.10546875,-16.11328125,-40.52734375,-62.01171875,-27.34375
126.109375,-29.296875,-36.62109375,-53.22265625,-35.64453125
126.11328125,-15.625,-35.15625,-52.24609375,-38.0859375
126.1171875,5.859375,-41.50390625,-60.546875,-21.97265625
126.12109375,-10.7421875,-39.55078125,-61.5234375,-23.4375
126.125,-36.62109375,-41.015625,-55.6640625,-24.90234375
126.12890625,-16.6015625,-38.0859375,-46.875,-21.97265625
126.1328125,7.32421875,-35.64453125,-48.33984375,-20.5078125
126.13671875,0.9765625,-43.9453125,-51.7578125,-18.06640625
126.140625,-7.32421875,-46.875,-50.78125,-20.01953125
126.14453125,-1.953125,-41.50390625,-52.24609375,-15.13671875
126.1484375,13.18359375,-40.52734375,-50.78125,-18.5546875
126.15234375,21.97265625,-42.48046875,-51.7578125,-15.13671875
126.15625,1.953125,-40.52734375,-50.29296875,-37.109375
126.16015625,-14.6484375,-40.0390625,-53.7109375,-45.8984375
126.1640625,-7.8125,-43.9453125,-55.17578125,-32.2265625
126.16796875,5.37109375,-41.9921875,-51.26953125,-34.1796875
126.171875,-11.23046875,-39.55078125,-49.8046875,-33.203125
126.17578125,-27.83203125,-44.43359375,-50.78125,-23.92578125
126.1796875,-17.578125,-43.45703125,-56.15234375,-23.4375
126.18359375,-1.46484375,-39.0625,-48.828125,-18.5546875
126.1875,-3.41796875,-41.50390625,-47.8515625,-16.11328125
126.19140625,-22.4609375,-42.96875,-50.29296875,-26.3671875
126.1953125,-16.6015625,-40.0390625,-47.8515625,-23.92578125
126.19921875,5.37109375,-37.109375,-51.7578125,-15.625
126.203125,-10.25390625,-36.62109375,-51.26953125,-38.57421875
126.20703125,-33.203125,-42.48046875,-56.640625,-37.109375
126.2109375,-36.1328125,-47.8515625,-64.94140625,-31.25
126.21484375,-19.53125,-42.48046875,-61.5234375,-38.57421875
126.21875,-11.23046875,-41.015625,-56.640625,-25.390625
126.22265625,-26.3671875,-45.41015625,-51.26953125,-39.55078125
126.2265625,-31.73828125,-44.921875,-49.31640625,-45.41015625
126.23046875,-9.27734375,-42.96875,-52.734375,-36.62109375
126.234375,6.34765625,-43.9453125,-56.15234375,-41.50390625
126.23828125,-18.5546875,-45.41015625,-59.08203125,-37.109375
126.2421875,-35.64453125,-47.36328125,-56.15234375,-30.2734375
126.24609375,-20.01953125,-47.8515625,-57.12890625,-45.41015625
126.25,-17.578125,-48.828125,-56.15234375,-48.828125
126.25390625,-36.1328125,-48.828125,-50.29296875,-44.921875
126.2578125,-54.19921875,-52.734375,-51.7578125,-46.38671875
126.26171875,-49.8046875,-48.828125,-56.15234375,-39.55078125
126.265625,-23.4375,-44.921875,-54.19921875,-39.0625
126.26953125,-17.578125,-46.38671875,-46.875,-36.1328125
126.2734375,-42.96875,-49.8046875,-48.33984375,-22.4609375
126.27734375,-45.41015625,-49.8046875,-53.7109375,-44.43359375
126.28125,-18.5546875,-44.43359375,-52.24609375,-48.33984375
126.28515625,-5.859375,-42.48046875,-47.8515625,-37.109375
126.2890625,-17.08984375,-46.875,-46.875,-33.69140625
126.29296875,-47.8515625,-41.015625,-44.921875,-46.875
126.296875,-36.62109375,-41.015625,-45.8984375,-45.41015625
126.30078125,-17.578125,-41.015625,-43.45703125,-41.50390625
126.3046875,-45.8984375,-41.9921875,-42.48046875,-47.36328125
126.30859375,-64.94140625,-38.0859375,-36.62109375,-46.875
126.3125,-43.45703125,-35.15625,-35.15625,-49.31640625
126.31640625,-33.203125,-42.96875,-41.9921875,-47.8515625
126.3203125,-44.921875,-39.0625,-42.96875,-37.59765625
126.32421875,-56.15234375,-40.0390625,-38.57421875,-32.2265625
126.328125,-61.5234375,-41.9921875,-37.109375,-9.765625
126.33203125,-26.3671875,-41.015625,-39.0625,-39.55078125
126.3359375,-30.76171875,-43.45703125,-43.9453125,-58.59375
126.33984375,-62.98828125,-41.9921875,-38.0859375,-45.8984375
126.34375,-46.875,-41.015625,-34.1796875,-44.921875
126.34765625,-17.578125,-39.55078125,-37.59765625,-36.62109375
126.3515625,-19.53125,-46.38671875,-44.921875,-41.50390625
126.35546875,-49.31640625,-48.33984375,-47.36328125,-52.734375
126.359375,-54.6875,-40.52734375,-47.8515625,-44.921875
126.36328125,-48.33984375,-38.57421875,-44.921875,-33.203125
126.3671875,-39.0625,-40.52734375,-40.52734375,-54.19921875
126.37109375,-49.31640625,-41.50390625,-39.55078125,-50.78125
126.375,-64.94140625,-42.96875,-40.0390625,-38.0859375
126.37890625,-49.8046875,-41.50390625,-42.96875,-47.36328125
126.3828125,-31.73828125,-37.109375,-32.2265625,-37.109375
126.38671875,-25.87890625,-36.62109375,-25.87890625,-20.99609375
126.390625,-52.734375,-42.96875,-34.66796875,-37.59765625
126.39453125,-58.59375,-38.57421875,-33.69140625,-41.015625
126.3984375,-30.76171875,-37.109375,-28.3203125,-34.1796875
126.40234375,-31.73828125,-41.9921875,-28.3203125,-37.109375
126.40625,-44.43359375,-42.48046875,-39.0625,-34.1796875
126.41015625,-43.9453125,-41.50390625,-36.1328125,-42.96875
126.4140625,-35.15625,-41.015625,-35.15625,-29.296875
126.41796875,-44.43359375,-40.0390625,-39.55078125,-35.15625
126.421875,-57.12890625,-36.1328125,-34.1796875,-47.8515625
126.42578125,-65.91796875,-34.66796875,-35.15625,-36.62109375
126.4296875,-55.6640625,-37.59765625,-44.43359375,-42.48046875
126.43359375,-30.76171875,-33.203125,-41.9921875,-52.24609375
126.4375,-32.2265625,-27.34375,-33.203125,-49.31640625
126.44140625,-52.734375,-31.25,-41.9921875,-44.921875
126.4453125,-51.26953125,-36.62109375,-45.41015625,-52.24609375
126.44921875,-34.66796875,-35.15625,-41.015625,-46.875
126.453125,-31.25,-35.64453125,-41.9921875,-44.921875
126.45703125,-49.31640625,-40.0390625,-41.015625,-42.48046875
126.4609375,-48.33984375,-40.0390625,-36.62109375,-30.76171875
126.46484375,-21.484375,-36.1328125,-34.66796875,-44.43359375
126.46875,-11.71875,-32.2265625,-33.69140625,-42.48046875
126.47265625,-17.08984375,-34.66796875,-34.66796875,-17.578125
126.4765625,-50.29296875,-41.50390625,-40.52734375,-46.875
126.48046875,-54.6875,-37.59765625,-39.0625,-46.38671875
126.484375,-34.1796875,-37.59765625,-40.0390625,-26.3671875
126.48828125,-45.41015625,-40.52734375,-40.0390625,-40.0390625
126.4921875,-50.29296875,-43.45703125,-38.57421875,-34.1796875
126.49609375,-23.92578125,-36.62109375,-23.92578125,-20.01953125
126.5,-5.37109375,-39.55078125,-26.3671875,-13.18359375
126.50390625,-20.01953125,-45.41015625,-38.57421875,-31.25
126.5078125,-37.109375,-41.50390625,-33.203125,-35.64453125
126.51171875,-37.109375,-36.1328125,-36.1328125,-38.0859375
126.515625,-31.73828125,-38.57421875,-41.50390625,-38.0859375
126.51953125,-28.3203125,-39.55078125,-40.52734375,-30.76171875
126.5234375,-33.69140625,-36.62109375,-37.59765625,-41.50390625
126.52734375,-33.69140625,-37.109375,-37.59765625,-41.015625
126.53125,-26.85546875,-37.59765625,-39.55078125,-43.9453125
126.53515625,-24.90234375,-35.15625,-37.59765625,-45.41015625
126.5390625,-37.109375,-35.64453125,-33.69140625,-42.96875
126.54296875,-43.9453125,-38.57421875,-33.69140625,-41.015625
126.546875,-32.2265625,-39.0625,-38.57421875,-37.109375
126.55078125,-20.01953125,-41.015625,-40.0390625,-40.0390625
126.5546875,-33.69140625,-44.921875,-47.8515625,-46.38671875
126.55859375,-64.453125,-44.921875,-49.8046875,-47.8515625
126.5625,-50.29296875,-37.109375,-39.0625,-40.52734375
126.56640625,-20.01953125,-36.1328125,-39.55078125,-44.921875
126.5703125,-26.3671875,-39.0625,-40.52734375,-33.203125
126.57421875,-53.22265625,-35.64453125,-32.2265625,-29.296875
126.578125,-46.875,-39.0625,-35.15625,-30.76171875
126.58203125,-32.71484375,-37.109375,-36.1328125,-32.2265625
126.5859375,-29.296875,-38.0859375,-37.59765625,-42.48046875
126.58984375,-49.8046875,-41.9921875,-42.48046875,-44.43359375
126.59375,-61.03515625,-40.52734375,-41.9921875,-39.0625
126.59765625,-40.52734375,-38.57421875,-41.015625,-29.78515625
126.6015625,-19.04296875,-37.109375,-43.9453125,-31.73828125
126.60546875,-31.73828125,-36.62109375,-42.48046875,-40.0390625
126.609375,-54.6875,-37.59765625,-38.57421875,-39.55078125
126.61328125,-32.71484375,-35.64453125,-40.0390625,-15.13671875
126.6171875,-10.25390625,-34.1796875,-36.1328125,-6.8359375
126.62109375,-41.015625,-32.71484375,-29.296875,-38.0859375
126.625,-65.91796875,-31.73828125,-36.1328125,-48.33984375
126.62890625,-44.43359375,-36.1328125,-44.43359375,-34.1796875
126.6328125,-20.99609375,-35.15625,-44.43359375,-43.9453125
126.63671875,-30.76171875,-31.73828125,-45.41015625,-47.8515625
126.640625,-45.41015625,-32.71484375,-49.8046875,-41.9921875
126.64453125,-47.8515625,-34.1796875,-52.24609375,-40.0390625
126.6484375,-38.57421875,-33.203125,-42.48046875,-40.0390625
126.65234375,-24.90234375,-33.203125,-36.1328125,-36.1328125
126.65625,-41.015625,-33.203125,-35.64453125,-31.25
126.66015625,-57.12890625,-32.71484375,-35.64453125,-34.1796875
126.6640625,-33.69140625,-36.1328125,-41.9921875,-35.15625
126.66796875,-11.23046875,-37.59765625,-44.43359375,-38.0859375
126.671875,-28.80859375,-42.48046875,-46.875,-50.29296875
126.67578125,-44.43359375,-42.48046875,-49.31640625,-50.29296875
126.6796875,-39.55078125,-40.0390625,-41.9921875,-38.0859375
126.68359375,-37.59765625,-39.55078125,-38.0859375,-44.43359375
126.6875,-31.25,-37.59765625,-37.109375,-46.875
126.69140625,-43.45703125,-40.0390625,-34.66796875,-40.52734375
126.6953125,-51.26953125,-40.0390625,-35.64453125,-39.55078125
126.69921875,-34.1796875,-37.59765625,-32.2265625,-20.5078125
126.703125,-20.5078125,-39.55078125,-32.71484375,-35.64453125
126.70703125,-44.43359375,-41.9921875,-41.50390625,-43.45703125
126.7109375,-64.453125,-42.48046875,-39.55078125,-26.85546875
126.71484375,-26.3671875,-38.0859375,-34.1796875,-29.296875
126.71875,-8.30078125,-35.64453125,-35.64453125,-41.50390625
126.72265625,-34.1796875,-37.59765625,-35.64453125,-41.015625
126.7265625,-36.62109375,-41.015625,-34.1796875,-33.69140625
126.73046875,-20.01953125,-39.0625,-34.66796875,-32.71484375
126.734375,-21.97265625,-41.9921875,-35.64453125,-22.4609375
126.73828125,-44.921875,-45.41015625,-41.9921875,-31.25
126.7421875,-59.08203125,-40.0390625,-44.921875,-38.57421875
126.74609375,-47.36328125,-37.59765625,-35.64453125,-28.80859375
126.75,-30.2734375,-39.55078125,-38.0859375,-34.66796875
126.75390625,-38.57421875,-39.0625,-38.57421875,-33.69140625
126.7578125,-47.8515625,-35.64453125,-34.1796875,-32.2265625
126.76171875,-43.9453125,-37.109375,-35.64453125,-41.9921875
126.765625,-38.0859375,-39.0625,-31.73828125,-30.76171875
126.76953125,-32.2265625,-38.0859375,-29.78515625,-23.92578125
126.7734375,-48.828125,-41.50390625,-38.57421875,-21.97265625
126.77734375,-60.05859375,-40.0390625,-39.55078125,-14.16015625
126.78125,-37.59765625,-34.1796875,-29.296875,-27.83203125
126.78515625,-32.71484375,-32.71484375,-29.296875,-36.1328125
126.7890625,-47.8515625,-35.64453125,-38.0859375,-35.15625
126.79296875,-57.6171875,-40.52734375,-42.96875,-38.57421875
126.796875,-39.0625,-40.0390625,-37.59765625,-28.3203125
126.80078125,-28.80859375,-41.9921875,-41.015625,-26.85546875
126.8046875,-30.76171875,-43.9453125,-45.8984375,-29.296875
126.80859375,-42.48046875,-40.52734375,-40.52734375,-29.296875
126.8125,-52.24609375,-36.62109375,-38.57421875,-34.1796875
126.81640625,-37.59765625,-35.15625,-38.0859375,-31.73828125
126.8203125,-40.0390625,-42.48046875,-43.9453125,-25.390625
126.82421875,-53.22265625,-41.9921875,-41.50390625,-23.92578125
126.828125,-41.50390625,-36.1328125,-36.62109375,-30.76171875
126.83203125,-19.53125,-33.69140625,-37.109375,-25.390625
126.8359375,-21.484375,-34.66796875,-34.1796875,-35.15625
126.83984375,-40.52734375,-34.1796875,-35.64453125,-41.9921875
126.84375,-44.921875,-34.66796875,-38.57421875,-37.59765625
126.84765625,-28.80859375,-33.69140625,-39.0625,-44.921875
126.8515625,-13.18359375,-36.1328125,-38.57421875,-34.66796875
126.85546875,-34.66796875,-35.15625,-34.1796875,-35.64453125
126.859375,-43.45703125,-34.66796875,-42.48046875,-37.109375
126.86328125,-33.203125,-34.66796875,-47.36328125,-35.15625
126.8671875,-17.08984375,-38.57421875,-45.8984375,-35.64453125
126.87109375,-18.06640625,-41.9921875,-47.8515625,-32.71484375
126.875,-37.59765625,-39.55078125,-46.875,-39.55078125
126.87890625,-33.203125,-39.0625,-49.31640625,-46.875
126.8828125,-9.27734375,-36.62109375,-44.921875,-43.9453125
126.88671875,-24.4140625,-32.71484375,-40.52734375,-36.62109375
126.890625,-56.640625,-33.69140625,-41.9921875,-37.59765625
126.89453125,-43.45703125,-35.15625,-41.015625,-40.52734375
126.8984375,-26.85546875,-36.1328125,-40.0390625,-43.9453125
126.90234375,-23.4375,-32.71484375,-33.69140625,-21.97265625
126.90625,-38.0859375,-31.25,-29.78515625,-13.18359375
126.91015625,-41.015625,-34.66796875,-31.25,-40.0390625
126.9140625,-15.625,-34.66796875,-31.73828125,-31.73828125
126.91796875,-16.11328125,-34.1796875,-36.62109375,-33.69140625
126.921875,-37.109375,-31.73828125,-33.203125,-30.76171875
126.92578125,-45.41015625,-28.3203125,-30.76171875,-28.80859375
126.9296875,-22.4609375,-29.296875,-30.76171875,-36.1328125
126.93359375,-6.34765625,-31.25,-28.80859375,-35.15625
126.9375,-31.25,-34.66796875,-36.62109375,-41.9921875
126.94140625,-44.43359375,-36.62109375,-41.015625,-34.66796875
126.9453125,-26.3671875,-40.0390625,-37.59765625,-21.484375
126.94921875,-25.390625,-39.0625,-36.1328125,-31.73828125
126.953125,-28.3203125,-41.015625,-42.48046875,-46.875
126.95703125,-40.52734375,-41.9921875,-39.55078125,-43.9453125
126.9609375,-39.0625,-40.52734375,-35.64453125,-32.71484375
126.96484375,-23.92578125,-41.015625,-41.015625,-37.59765625
126.96875,-14.6484375,-41.50390625,-41.50390625,-33.203125
126.97265625,-29.78515625,-43.9453125,-40.52734375,-26.3671875
126.9765625,-43.9453125,-48.828125,-44.43359375,-47.36328125
126.98046875,-11.23046875,-39.55078125,-40.52734375,-48.33984375
126.984375,-1.46484375,-35.64453125,-34.66796875,-35.15625
126.98828125,-17.08984375,-39.0625,-39.55078125,-26.85546875
126.9921875,-28.3203125,-43.45703125,-42.96875,-17.08984375
126.99609375,-27.34375,-44.43359375,-37.59765625,-35.15625
127.0,-11.71875,-41.015625,-38.0859375,-45.41015625
127.00390625,5.37109375,-37.109375,-41.50390625,-40.52734375
127.0078125,0.48828125,-42.48046875,-48.828125,-40.52734375
127.01171875,-1.953125,-46.875,-43.9453125,-47.36328125
127.015625,8.30078125,-48.828125,-39.55078125,-35.15625
127.01953125,-3.41796875,-47.8515625,-41.9921875,-31.25
127.0234375,-36.62109375,-41.50390625,-41.50390625,-39.55078125
127.02734375,-41.9921875,-41.9921875,-48.828125,-46.875
127.03125,-30.2734375,-42.96875,-47.36328125,-35.15625
127.03515625,-40.52734375,-43.9453125,-41.9921875,-29.296875
127.0390625,-54.19921875,-43.9453125,-41.9921875,-38.57421875
127.04296875,-77.63671875,-41.50390625,-40.52734375,-34.66796875
127.046875,-76.171875,-43.9453125,-42.96875,-22.94921875
127.05078125,-59.5703125,-40.52734375,-46.875,-22.94921875
127.0546875,-72.265625,-45.41015625,-45.8984375,-43.9453125
127.05859375,-83.0078125,-51.26953125,-42.96875,-42.48046875
127.0625,-74.70703125,-48.33984375,-43.45703125,-37.59765625
127.06640625,-55.6640625,-47.36328125,-42.48046875,-40.0390625
127.0703125,-57.12890625,-44.921875,-39.55078125,-32.2265625
127.07421875,-69.82421875,-45.41015625,-43.45703125,-26.3671875
127.078125,-73.73046875,-47.36328125,-45.41015625,-52.24609375
127.08203125,-60.05859375,-41.50390625,-40.0390625,-56.640625
127.0859375,-47.8515625,-40.52734375,-39.0625,-35.64453125
127.08984375,-67.87109375,-38.0859375,-38.57421875,-36.1328125
127.09375,-74.70703125,-36.62109375,-33.69140625,-33.69140625
127.09765625,-61.03515625,-39.0625,-35.15625,-40.0390625
127.1015625,-42.48046875,-40.0390625,-41.50390625,-42.48046875
127.10546875,-62.5,-41.015625,-44.43359375,-35.64453125
127.109375,-81.0546875,-37.59765625,-38.57421875,-42.48046875
127.11328125,-57.6171875,-38.57421875,-39.0625,-32.2265625
127.1171875,-38.57421875,-40.52734375,-42.48046875,-27.34375
127.12109375,-48.828125,-37.109375,-40.52734375,-38.0859375
127.125,-65.91796875,-38.0859375,-37.109375,-36.62109375
127.12890625,-49.8046875,-35.15625,-38.57421875,-29.296875
127.1328125,-22.94921875,-31.73828125,-42.96875,-20.5078125
127.13671875,-37.109375,-38.57421875,-43.45703125,-29.78515625
127.140625,-35.15625,-36.62109375,-39.0625,-50.29296875
127.14453125,-42.96875,-35.15625,-40.0390625,-41.50390625
127.1484375,-55.17578125,-43.9453125,-48.33984375,-37.109375
127.15234375,-45.8984375,-43.45703125,-45.41015625,-24.90234375
127.15625,-58.59375,-41.015625,-43.9453125,-26.85546875
127.16015625,-67.87109375,-41.9921875,-41.9921875,-42.48046875
127.1640625,-48.828125,-43.45703125,-38.0859375,-36.62109375
127.16796875,-36.1328125,-43.9453125,-43.45703125,-45.8984375
127.171875,-53.7109375,-46.875,-48.33984375,-46.875
127.17578125,-76.171875,-47.8515625,-43.45703125,-46.875
127.1796875,-57.6171875,-46.38671875,-39.55078125,-48.33984375
127.18359375,-36.1328125,-43.45703125,-44.921875,-42.48046875
127.1875,-49.31640625,-41.9921875,-44.921875,-34.66796875
127.19140625,-63.4765625,-42.96875,-41.50390625,-26.3671875
127.1953125,-50.29296875,-49.31640625,-47.8515625,-46.38671875
127.19921875,-30.76171875,-44.921875,-44.921875,-50.78125
127.203125,-43.9453125,-42.48046875,-39.55078125,-34.66796875
127.20703125,-64.94140625,-44.921875,-42.48046875,-49.31640625
127.2109375,-64.94140625,-42.96875,-43.9453125,-57.6171875
127.21484375,-41.9921875,-40.0390625,-41.9921875,-27.83203125
127.21875,-34.66796875,-36.1328125,-41.9921875,-24.90234375
127.22265625,-46.875,-39.0625,-43.45703125,-46.38671875
127.2265625,-53.7109375,-43.45703125,-42.48046875,-38.0859375
127.23046875,-48.33984375,-38.0859375,-42.96875,-37.109375
127.234375,-27.83203125,-41.015625,-42.48046875,-44.43359375
127.23828125,-50.78125,-42.96875,-40.52734375,-47.8515625
127.2421875,-70.80078125,-42.96875,-47.36328125,-46.875
127.24609375,-51.26953125,-42.48046875,-45.8984375,-38.0859375
127.25,-36.62109375,-41.50390625,-38.57421875,-32.71484375
127.25390625,-44.43359375,-43.45703125,-43.9453125,-38.57421875
127.2578125,-61.03515625,-42.96875,-40.52734375,-36.62109375
127.26171875,-58.59375,-44.43359375,-39.55078125,-46.38671875
127.265625,-31.25,-36.62109375,-37.109375,-35.15625
127.26953125,-22.4609375,-36.1328125,-32.2265625,-37.59765625
127.2734375,-42.48046875,-41.50390625,-37.109375,-42.48046875
127.27734375,-56.640625,-36.1328125,-44.921875,-36.1328125
127.28125,-40.0390625,-36.62109375,-41.9921875,-49.31640625
127.28515625,-28.3203125,-38.0859375,-40.0390625,-52.734375
127.2890625,-53.7109375,-33.203125,-41.015625,-48.828125
127.29296875,-59.5703125,-33.69140625,-35.64453125,-34.1796875
127.296875,-44.921875,-36.1328125,-34.66796875,-10.25390625
127.30078125,-37.109375,-39.55078125,-42.48046875,-34.1796875
127.3046875,-36.62109375,-37.59765625,-40.0390625,-45.41015625
127.30859375,-59.08203125,-34.66796875,-32.71484375,-48.828125
127.3125,-56.640625,-37.59765625,-39.0625,-55.17578125
127.31640625,-25.390625,-36.1328125,-38.57421875,-44.921875
127.3203125,-26.3671875,-31.73828125,-36.1328125,-35.15625
127.32421875,-48.33984375,-34.1796875,-40.52734375,-37.109375
127.328125,-51.7578125,-40.0390625,-40.0390625,-34.1796875
127.33203125,-30.76171875,-36.1328125,-33.203125,-31.25
127.3359375,-31.73828125,-40.52734375,-32.2265625,-40.52734375
127.33984375,-44.921875,-40.52734375,-35.64453125,-30.2734375
127.34375,-50.78125,-32.71484375,-36.62109375,-36.1328125
127.34765625,-49.31640625,-29.296875,-38.57421875,-44.43359375
127.3515625,-32.2265625,-32.2265625,-38.0859375,-21.97265625
127.35546875,-44.43359375,-34.66796875,-39.55078125,-28.3203125
127.359375,-59.08203125,-36.62109375,-38.57421875,-43.45703125
127.36328125,-42.48046875,-37.59765625,-36.62109375,-23.92578125
127.3671875,-16.11328125,-34.1796875,-41.9921875,-22.94921875
127.37109375,-39.55078125,-34.1796875,-45.41015625,-26.3671875
127.375,-63.4765625,-34.66796875,-44.921875,-27.34375
127.37890625,-50.78125,-37.109375,-47.36328125,-44.43359375
127.3828125,-33.203125,-37.59765625,-47.36328125,-45.8984375
127.38671875,-34.66796875,-34.66796875,-41.50390625,-33.69140625
127.390625,-52.734375,-35.15625,-39.0625,-40.0390625
127.39453125,-61.5234375,-37.109375,-43.9453125,-55.17578125
127.3984375,-43.9453125,-39.55078125,-45.41015625,-56.15234375
127.40234375,-35.64453125,-38.57421875,-39.0625,-42.96875
127.40625,-58.10546875,-35.15625,-35.64453125,-44.43359375
127.41015625,-65.91796875,-33.203125,-31.73828125,-47.8515625
127.4140625,-45.8984375,-31.25,-30.2734375,-29.78515625
127.41796875,-29.78515625,-32.71484375,-36.62109375,-25.87890625
127.421875,-44.921875,-37.59765625,-41.50390625,-42.96875
127.42578125,-62.98828125,-35.64453125,-35.64453125,-43.9453125
127.4296875,-43.9453125,-37.109375,-33.203125,-34.1796875
127.43359375,-26.3671875,-37.109375,-31.25,-19.04296875
127.4375,-39.0625,-39.0625,-37.109375,-29.78515625
127.44140625,-61.03515625,-37.109375,-41.015625,-37.109375
127.4453125,-65.4296875,-36.62109375,-33.69140625,-34.66796875
127.44921875,-42.96875,-37.109375,-37.109375,-38.0859375
127.453125,-39.55078125,-34.66796875,-41.015625,-34.1796875
127.45703125,-54.19921875,-35.15625,-41.9921875,-34.1796875
127.4609375,-49.8046875,-34.1796875,-37.109375,-43.9453125
127.46484375,-32.71484375,-34.1796875,-32.71484375,-36.62109375
127.46875,-19.53125,-38.57421875,-37.59765625,-42.48046875
127.47265625,-49.31640625,-39.55078125,-34.1796875,-46.38671875
127.4765625,-67.3828125,-43.9453125,-33.69140625,-38.0859375
127.48046875,-43.45703125,-40.0390625,-40.52734375,-38.57421875
127.484375,-27.83203125,-33.203125,-36.1328125,-35.15625
127.48828125,-34.1796875,-36.62109375,-31.73828125,-34.66796875
127.4921875,-47.36328125,-38.57421875,-35.64453125,-32.2265625
127.49609375,-36.1328125,-37.59765625,-38.0859375,-30.76171875
127.5,-21.484375,-38.0859375,-39.0625,-49.8046875
127.50390625,-20.01953125,-39.0625,-41.9921875,-44.921875
127.5078125,-41.50390625,-36.62109375,-40.0390625,-38.0859375
127.51171875,-45.8984375,-31.73828125,-36.62109375,-31.25
127.515625,-22.94921875,-34.66796875,-40.52734375,-24.90234375
127.51953125,-15.625,-37.109375,-36.62109375,-32.71484375
127.5234375,-41.50390625,-36.1328125,-35.64453125,-31.73828125
127.52734375,-49.31640625,-37.59765625,-37.109375,-28.3203125
127.53125,-21.484375,-38.0859375,-34.1796875,-40.52734375
127.53515625,-11.71875,-38.57421875,-37.59765625,-36.62109375
127.5390625,-26.3671875,-40.0390625,-39.0625,-34.1796875
127.54296875,-33.203125,-35.64453125,-45.41015625,-31.73828125
127.546875,-28.80859375,-30.76171875,-45.41015625,-21.484375
127.55078125,-21.97265625,-27.83203125,-35.15625,-24.4140625
127.5546875,-36.1328125,-37.59765625,-32.71484375,-16.11328125
127.55859375,-50.29296875,-41.50390625,-41.50390625,-28.3203125
127.5625,-34.66796875,-41.50390625,-46.38671875,-37.109375
127.56640625,-27.34375,-41.50390625,-39.55078125,-23.92578125
127.5703125,-29.296875,-41.015625,-37.59765625,-29.296875
127.57421875,-43.45703125,-44.921875,-40.0390625,-30.76171875
127.578125,-39.55078125,-44.921875,-36.1328125,-31.73828125
127.58203125,-25.87890625,-39.55078125,-35.64453125,-29.296875
127.5859375,-33.69140625,-35.64453125,-33.69140625,-34.66796875
127.58984375,-62.01171875,-39.0625,-33.203125,-47.36328125
127.59375,-70.3125,-41.9921875,-33.69140625,-47.36328125
127.59765625,-46.38671875,-40.52734375,-30.2734375,-36.62109375
127.6015625,-38.57421875,-41.9921875,-30.2734375,-31.73828125
127.60546875,-57.12890625,-41.50390625,-36.1328125,-53.22265625
127.609375,-59.08203125,-42.48046875,-35.64453125,-53.22265625
127.61328125,-40.52734375,-41.9921875,-30.76171875,-41.015625
127.6171875,-32.2265625,-37.59765625,-24.4140625,-32.71484375
127.62109375,-35.15625,-33.69140625,-27.83203125,-24.4140625
127.625,-47.36328125,-35.15625,-41.50390625,-34.1796875
127.62890625,-39.55078125,-33.69140625,-40.52734375,-38.0859375
127.6328125,-20.99609375,-33.69140625,-36.62109375,-29.296875
127.63671875,-29.296875,-36.1328125,-37.59765625,-18.5546875
127.640625,-47.8515625,-38.57421875,-34.66796875,-27.34375
127.64453125,-43.45703125,-39.0625,-29.78515625,-28.80859375
127.6484375,-21.484375,-37.59765625,-25.87890625,-32.71484375
127.65234375,-22.4609375,-36.1328125,-29.78515625,-40.52734375
127.65625,-39.0625,-35.64453125,-30.76171875,-44.43359375
127.66015625,-46.875,-37.109375,-31.25,-42.96875
127.6640625,-28.3203125,-41.015625,-37.59765625,-46.875
127.66796875,-17.08984375,-40.52734375,-41.50390625,-58.59375
127.671875,-40.0390625,-40.52734375,-40.52734375,-45.8984375
127.67578125,-62.01171875,-40.0390625,-35.15625,-26.3671875
127.6796875,-44.43359375,-39.55078125,-29.78515625,-27.34375
127.68359375,-26.3671875,-39.0625,-30.76171875,-31.73828125
127.6875,-38.57421875,-38.0859375,-32.2265625,-47.8515625
127.69140625,-55.17578125,-38.0859375,-27.83203125,-24.4140625
127.6953125,-48.33984375,-35.64453125,-29.78515625,-33.203125
127.69921875,-27.83203125,-35.15625,-39.55078125,-39.55078125
127.703125,-20.01953125,-38.57421875,-39.0625,-28.3203125
127.70703125,-42.96875,-39.55078125,-33.203125,-54.19921875
127.7109375,-53.7109375,-41.50390625,-41.9921875,-57.6171875
127.71484375,-45.8984375,-43.45703125,-46.38671875,-39.0625
127.71875,-41.50390625,-41.9921875,-39.55078125,-45.8984375
127.72265625,-50.78125,-38.0859375,-39.55078125,-37.59765625
127.7265625,-67.87109375,-37.109375,-41.50390625,-30.2734375
127.73046875,-49.8046875,-34.1796875,-38.57421875,-33.69140625
127.734375,-24.90234375,-33.203125,-35.64453125,-36.1328125
127.73828125,-42.48046875,-38.57421875,-32.71484375,-18.06640625
127.7421875,-56.15234375,-41.9921875,-34.66796875,-29.78515625
127.74609375,-52.24609375,-41.015625,-39.55078125,-56.15234375
127.75,-27.34375,-37.59765625,-37.59765625,-45.8984375
127.75390625,-35.64453125,-37.59765625,-35.15625,-30.2734375
127.7578125,-59.08203125,-40.0390625,-40.0390625,-42.96875
127.76171875,-42.96875,-32.71484375,-36.62109375,-44.921875
127.765625,-22.94921875,-30.2734375,-32.2265625,-28.80859375
127.76953125,-19.04296875,-34.1796875,-35.15625,-37.109375
127.7734375,-30.2734375,-32.2265625,-28.80859375,-40.52734375
127.77734375,-44.921875,-37.109375,-28.80859375,-36.62109375
127.78125,-35.15625,-42.96875,-36.62109375,-32.71484375
127.78515625,-16.11328125,-40.0390625,-31.25,-31.25
127.7890625,-33.203125,-40.52734375,-29.78515625,-29.296875
127.79296875,-41.50390625,-38.57421875,-34.66796875,-34.66796875
127.796875,-30.76171875,-37.109375,-35.64453125,-43.45703125
127.80078125,-21.484375,-35.64453125,-32.71484375,-38.0859375
127.8046875,-34.66796875,-41.9921875,-39.55078125,-33.69140625
127.80859375,-54.19921875,-43.9453125,-46.875,-25.390625
127.8125,-37.59765625,-41.50390625,-41.50390625,-31.73828125
127.81640625,-17.08984375,-41.015625,-37.109375,-39.0625
127.8203125,-28.3203125,-37.59765625,-32.71484375,-26.85546875
127.82421875,-41.50390625,-38.57421875,-31.25,-37.59765625
127.828125,-35.64453125,-37.109375,-35.15625,-40.52734375
127.83203125,-29.78515625,-37.109375,-38.0859375,-28.3203125
127.8359375,-32.2265625,-40.52734375,-38.57421875,-40.52734375
127.83984375,-39.0625,-37.109375,-35.15625,-37.109375
127.84375,-52.24609375,-34.66796875,-34.66796875,-35.15625
127.84765625,-34.66796875,-37.59765625,-35.64453125,-42.96875
127.8515625,-17.08984375,-39.0625,-35.64453125,-19.53125
127.85546875,-36.1328125,-41.015625,-37.109375,-30.76171875
127.859375,-45.8984375,-35.15625,-35.64453125,-37.59765625
