Timestamp,TP9,AF7,AF8,TP10
120.0078125,-58.59375,-35.15625,-38.0859375,-28.3203125
120.01171875,-53.7109375,-36.62109375,-42.48046875,-25.87890625
120.015625,-47.36328125,-36.62109375,-42.96875,-30.2734375
120.01953125,-47.8515625,-37.59765625,-37.109375,-27.83203125
120.0234375,-67.3828125,-39.55078125,-36.1328125,-24.90234375
120.02734375,-41.015625,-37.109375,-42.48046875,-33.69140625
120.03125,-39.55078125,-34.1796875,-40.52734375,-13.18359375
120.03515625,-48.33984375,-36.1328125,-36.1328125,-17.578125
120.0390625,-43.9453125,-40.52734375,-41.015625,-33.69140625
120.04296875,-49.31640625,-41.9921875,-43.9453125,-7.8125
120.046875,-43.9453125,-42.48046875,-45.8984375,-23.92578125
120.05078125,-39.55078125,-38.0859375,-41.50390625,-45.41015625
120.0546875,-55.6640625,-29.78515625,-34.1796875,-27.83203125
120.05859375,-31.73828125,-30.76171875,-37.59765625,-13.18359375
120.0625,-9.27734375,-35.15625,-41.9921875,-37.59765625
120.06640625,-47.36328125,-33.203125,-42.48046875,-33.203125
120.0703125,-66.89453125,-34.66796875,-41.50390625,-11.71875
120.07421875,-61.03515625,-31.73828125,-36.62109375,-30.2734375
120.078125,-43.9453125,-30.76171875,-41.015625,-39.55078125
120.08203125,-40.52734375,-37.59765625,-44.921875,-42.96875
120.0859375,-62.01171875,-35.64453125,-35.64453125,-26.3671875
120.08984375,-58.10546875,-32.71484375,-30.76171875,-11.23046875
120.09375,-32.2265625,-36.1328125,-34.1796875,-33.69140625
120.09765625,-37.109375,-40.52734375,-35.15625,-46.38671875
120.1015625,-49.31640625,-41.015625,-36.1328125,-44.43359375
120.10546875,-52.24609375,-42.96875,-39.55078125,-40.52734375
120.109375,-57.12890625,-41.9921875,-38.57421875,-18.5546875
120.11328125,-24.90234375,-32.71484375,-29.78515625,-9.27734375
120.1171875,-33.69140625,-31.25,-25.390625,-31.25
120.12109375,-51.7578125,-34.66796875,-30.76171875,-26.85546875
120.125,-41.015625,-35.64453125,-37.59765625,-4.8828125
120.12890625,-29.296875,-32.2265625,-37.59765625,-10.25390625
120.1328125,-14.16015625,-28.3203125,-30.76171875,-13.18359375
120.13671875,-55.6640625,-30.2734375,-33.203125,-19.53125
120.140625,-40.52734375,-33.203125,-37.59765625,-30.76171875
120.14453125,-12.20703125,-25.87890625,-29.78515625,-21.484375
120.1484375,-36.62109375,-23.92578125,-28.80859375,-20.99609375
120.15234375,-40.52734375,-28.80859375,-28.80859375,-22.4609375
120.15625,-41.015625,-30.76171875,-28.3203125,-5.37109375
120.16015625,-32.2265625,-28.80859375,-32.2265625,-28.80859375
120.1640625,-12.20703125,-27.34375,-37.59765625,-60.05859375
120.16796875,-31.73828125,-27.83203125,-42.48046875,-48.828125
120.171875,-68.359375,-30.2734375,-42.96875,-44.921875
120.17578125,-54.19921875,-27.34375,-40.0390625,-41.50390625
120.1796875,-23.4375,-26.3671875,-40.0390625,-24.90234375
120.18359375,-18.06640625,-28.80859375,-37.109375,-19.04296875
120.1875,-26.85546875,-27.83203125,-36.1328125,-12.6953125
120.19140625,-40.52734375,-27.34375,-39.55078125,-37.109375
120.1953125,-23.92578125,-26.3671875,-35.15625,-54.19921875
120.19921875,-17.578125,-32.71484375,-35.15625,-45.8984375
120.203125,-43.45703125,-31.25,-35.64453125,-30.2734375
120.20703125,-48.828125,-25.390625,-33.69140625,-24.4140625
120.2109375,-30.2734375,-30.2734375,-38.57421875,-45.41015625
120.21484375,-24.90234375,-34.1796875,-42.48046875,-42.96875
120.21875,-36.1328125,-28.80859375,-34.66796875,-41.50390625
120.22265625,-36.62109375,-30.76171875,-34.66796875,-20.5078125
120.2265625,-14.6484375,-31.73828125,-34.1796875,-31.25
120.23046875,-12.6953125,-29.296875,-33.69140625,-34.66796875
120.234375,-21.97265625,-28.80859375,-34.1796875,-32.2265625
120.23828125,-47.36328125,-30.76171875,-41.9921875,-64.94140625
120.2421875,-62.98828125,-34.1796875,-49.8046875,-67.3828125
120.24609375,-62.01171875,-33.203125,-44.43359375,-59.5703125
120.25,-50.29296875,-31.25,-48.828125,-56.640625
120.25390625,-42.96875,-27.83203125,-48.828125,-47.36328125
120.2578125,-52.24609375,-27.34375,-45.41015625,-40.0390625
120.26171875,-33.203125,-32.71484375,-49.31640625,-64.94140625
120.265625,-29.296875,-32.2265625,-47.8515625,-34.1796875
120.26953125,-46.875,-29.296875,-45.8984375,-22.94921875
120.2734375,-57.6171875,-25.87890625,-45.8984375,-59.08203125
120.27734375,-36.62109375,-23.92578125,-46.38671875,-58.10546875
120.28125,-31.73828125,-21.97265625,-44.921875,-46.875
120.28515625,-46.38671875,-21.97265625,-45.8984375,-41.015625
120.2890625,-56.15234375,-23.4375,-48.33984375,-55.6640625
120.29296875,-59.5703125,-22.94921875,-45.41015625,-58.59375
120.296875,-39.55078125,-22.94921875,-43.9453125,-56.15234375
120.30078125,-30.76171875,-20.01953125,-41.50390625,-44.921875
120.3046875,-36.1328125,-22.94921875,-41.015625,-28.3203125
120.30859375,-47.8515625,-30.76171875,-42.48046875,-39.55078125
120.3125,-47.36328125,-30.2734375,-40.52734375,-64.453125
120.31640625,-36.62109375,-33.69140625,-41.50390625,-47.36328125
120.3203125,-49.31640625,-36.1328125,-41.50390625,-41.50390625
120.32421875,-47.8515625,-30.76171875,-39.0625,-51.26953125
120.328125,-23.92578125,-30.76171875,-39.55078125,-36.62109375
120.33203125,-30.2734375,-34.1796875,-38.0859375,-37.109375
120.3359375,-45.8984375,-33.203125,-36.1328125,-39.0625
120.33984375,-47.8515625,-31.25,-41.9921875,-37.59765625
120.34375,-44.921875,-33.203125,-44.43359375,-46.875
120.34765625,-35.64453125,-32.2265625,-39.0625,-51.26953125
120.3515625,-37.59765625,-30.76171875,-37.59765625,-43.9453125
120.35546875,-26.3671875,-34.1796875,-40.52734375,-37.109375
120.359375,-39.0625,-37.109375,-40.0390625,-42.96875
120.36328125,-34.66796875,-36.62109375,-36.1328125,-41.015625
120.3671875,-26.3671875,-34.1796875,-37.109375,-20.5078125
120.37109375,-38.0859375,-35.15625,-40.0390625,-38.0859375
120.375,-44.921875,-37.109375,-37.109375,-47.36328125
120.37890625,-40.0390625,-38.57421875,-34.66796875,-40.0390625
120.3828125,-27.34375,-37.59765625,-36.62109375,-36.62109375
120.38671875,-49.8046875,-37.109375,-40.0390625,-34.1796875
120.390625,-55.6640625,-37.109375,-38.57421875,-45.8984375
120.39453125,-28.80859375,-36.62109375,-37.59765625,-38.0859375
120.3984375,-23.92578125,-36.1328125,-43.45703125,-24.4140625
120.40234375,-62.5,-34.66796875,-46.875,-36.1328125
120.40625,-64.94140625,-36.1328125,-43.9453125,-47.8515625
120.41015625,-58.10546875,-37.59765625,-41.9921875,-52.24609375
120.4140625,-50.29296875,-36.62109375,-39.55078125,-36.62109375
120.41796875,-23.92578125,-34.66796875,-38.57421875,-36.1328125
120.421875,-40.52734375,-32.71484375,-41.50390625,-35.64453125
120.42578125,-39.55078125,-31.73828125,-40.0390625,-29.78515625
120.4296875,-16.11328125,-29.78515625,-37.109375,-31.25
120.43359375,-13.18359375,-30.76171875,-36.1328125,-29.296875
120.4375,-55.6640625,-32.2265625,-32.2265625,-28.80859375
120.44140625,-68.359375,-34.66796875,-33.203125,-28.3203125
120.4453125,-24.90234375,-35.15625,-34.66796875,-27.83203125
120.44921875,-12.20703125,-35.64453125,-30.76171875,-13.671875
120.453125,-57.12890625,-38.57421875,-34.1796875,-26.3671875
120.45703125,-60.05859375,-34.1796875,-30.2734375,-23.4375
120.4609375,-30.76171875,-33.203125,-24.4140625,-9.765625
120.46484375,-31.25,-36.1328125,-31.25,-36.1328125
120.46875,-66.89453125,-37.59765625,-36.62109375,-41.9921875
120.47265625,-52.24609375,-37.59765625,-30.76171875,-53.22265625
120.4765625,-28.80859375,-38.0859375,-30.2734375,-46.875
120.48046875,-25.390625,-38.57421875,-34.66796875,-37.59765625
120.484375,-33.69140625,-34.1796875,-30.76171875,-31.25
120.48828125,-45.8984375,-34.1796875,-30.76171875,-34.1796875
120.4921875,-59.5703125,-38.0859375,-32.2265625,-23.92578125
120.49609375,-56.15234375,-38.0859375,-33.203125,-34.1796875
120.5,-30.2734375,-35.64453125,-33.203125,-41.015625
120.50390625,-41.9921875,-36.1328125,-36.62109375,-33.69140625
120.5078125,-66.89453125,-36.1328125,-36.62109375,-30.76171875
120.51171875,-36.1328125,-35.64453125,-31.73828125,-23.92578125
120.515625,-16.11328125,-38.0859375,-33.203125,-36.1328125
120.51953125,-49.8046875,-37.109375,-37.109375,-32.2265625
120.5234375,-47.8515625,-33.69140625,-36.1328125,-29.78515625
120.52734375,-20.5078125,-33.203125,-31.73828125,-26.3671875
120.53125,-20.99609375,-33.203125,-33.69140625,-20.5078125
120.53515625,-40.52734375,-30.2734375,-35.64453125,-46.875
120.5390625,-69.82421875,-31.25,-35.15625,-47.8515625
120.54296875,-56.15234375,-37.59765625,-41.015625,-36.62109375
120.546875,-29.296875,-33.203125,-34.66796875,-29.78515625
120.55078125,-28.80859375,-34.66796875,-31.25,-4.8828125
120.5546875,-38.0859375,-35.64453125,-35.15625,-25.87890625
120.55859375,-56.15234375,-32.71484375,-36.1328125,-62.01171875
120.5625,-40.52734375,-37.109375,-41.9921875,-43.9453125
120.56640625,-23.92578125,-38.0859375,-47.36328125,-39.55078125
120.5703125,-20.99609375,-38.0859375,-46.875,-38.57421875
120.57421875,-41.9921875,-39.55078125,-47.36328125,-20.99609375
120.578125,-22.94921875,-36.62109375,-42.96875,-35.15625
120.58203125,0.9765625,-33.69140625,-35.64453125,-59.5703125
120.5859375,-53.7109375,-38.57421875,-40.52734375,-54.19921875
120.58984375,-69.82421875,-39.55078125,-39.55078125,-44.921875
120.59375,-26.85546875,-36.1328125,-36.1328125,-34.66796875
120.59765625,-23.92578125,-37.109375,-38.0859375,-32.71484375
120.6015625,-60.546875,-34.1796875,-39.55078125,-44.921875
120.60546875,-62.01171875,-33.203125,-35.64453125,-43.9453125
120.609375,-42.96875,-36.1328125,-34.1796875,-38.0859375
120.61328125,-19.53125,-35.15625,-40.52734375,-37.109375
120.6171875,-22.94921875,-36.1328125,-41.50390625,-38.0859375
120.62109375,-47.36328125,-34.1796875,-37.59765625,-22.94921875
120.625,-61.5234375,-30.76171875,-35.64453125,-9.27734375
120.62890625,-32.71484375,-25.87890625,-33.203125,-31.25
120.6328125,-25.87890625,-28.3203125,-34.66796875,-23.4375
120.63671875,-55.17578125,-36.62109375,-34.1796875,-16.6015625
120.640625,-29.78515625,-35.64453125,-33.203125,-32.71484375
120.64453125,-10.25390625,-33.203125,-32.2265625,-32.71484375
120.6484375,-61.03515625,-35.64453125,-33.203125,-22.94921875
120.65234375,-56.640625,-33.69140625,-35.64453125,-25.390625
120.65625,-36.1328125,-33.203125,-35.15625,-37.109375
120.66015625,-39.0625,-34.66796875,-32.71484375,-36.1328125
120.6640625,-32.71484375,-33.203125,-31.25,-34.1796875
120.66796875,-44.921875,-37.59765625,-33.69140625,-33.69140625
120.671875,-37.59765625,-39.55078125,-35.15625,-18.06640625
120.67578125,-54.6875,-33.69140625,-31.25,-4.8828125
120.6796875,-45.41015625,-33.69140625,-34.66796875,-40.0390625
120.68359375,-3.90625,-37.59765625,-41.50390625,-60.546875
120.6875,-38.57421875,-33.203125,-37.59765625,-39.55078125
120.69140625,-84.47265625,-30.76171875,-35.15625,-35.15625
120.6953125,-57.12890625,-30.2734375,-35.15625,-27.34375
120.69921875,-30.2734375,-30.2734375,-34.66796875,-21.484375
120.703125,-50.29296875,-30.76171875,-33.69140625,-36.62109375
120.70703125,-43.45703125,-31.73828125,-32.71484375,-31.25
120.7109375,-34.66796875,-33.69140625,-26.85546875,20.99609375
120.71484375,-53.22265625,-32.71484375,-25.390625,-9.765625
120.71875,-44.921875,-33.203125,-33.69140625,-64.453125
120.72265625,-44.43359375,-31.25,-34.1796875,-38.0859375
120.7265625,-38.0859375,-26.85546875,-34.1796875,-38.57421875
120.73046875,-5.859375,-32.2265625,-33.203125,-46.875
120.734375,9.765625,-34.66796875,-30.76171875,-32.2265625
120.73828125,-56.15234375,-31.73828125,-31.25,-14.16015625
120.7421875,-78.61328125,-30.2734375,-26.85546875,-21.484375
120.74609375,-43.45703125,-30.2734375,-23.92578125,-20.99609375
120.75,-46.38671875,-30.76171875,-30.76171875,-25.390625
120.75390625,-58.10546875,-32.2265625,-33.69140625,-41.9921875
120.7578125,-45.8984375,-36.1328125,-33.203125,-27.83203125
120.76171875,-37.59765625,-35.64453125,-34.1796875,-26.3671875
120.765625,-39.0625,-32.2265625,-34.66796875,-33.203125
120.76953125,-39.0625,-29.296875,-34.66796875,-34.1796875
120.7734375,-20.01953125,-28.3203125,-38.0859375,1.46484375
120.77734375,-11.71875,-32.2265625,-39.0625,4.8828125
120.78125,-23.4375,-35.15625,-32.2265625,-37.59765625
120.78515625,-52.24609375,-36.62109375,-27.34375,-42.48046875
120.7890625,-99.12109375,-37.59765625,-23.92578125,-33.203125
120.79296875,-82.51953125,-35.64453125,-19.04296875,-36.62109375
120.796875,-50.29296875,-33.69140625,-17.578125,-41.50390625
120.80078125,-60.546875,-35.15625,-21.484375,-41.9921875
120.8046875,-75.68359375,-31.73828125,-23.4375,-51.7578125
120.80859375,-58.10546875,-32.71484375,-23.92578125,-25.390625
120.8125,-40.0390625,-36.1328125,-26.3671875,-13.671875
120.81640625,-65.91796875,-31.25,-28.80859375,-27.83203125
120.8203125,-89.35546875,-30.2734375,-30.2734375,-29.296875
120.82421875,-69.82421875,-31.73828125,-28.80859375,-34.66796875
120.828125,-54.19921875,-32.2265625,-26.3671875,-32.2265625
120.83203125,-57.6171875,-32.71484375,-28.3203125,-35.64453125
120.8359375,-51.7578125,-31.73828125,-28.80859375,-31.25
120.83984375,-35.64453125,-31.25,-29.78515625,-33.203125
120.84375,-55.6640625,-32.71484375,-30.2734375,-46.38671875
120.84765625,-71.77734375,-28.3203125,-25.390625,-30.76171875
120.8515625,-26.85546875,-30.76171875,-29.296875,-27.83203125
120.85546875,-37.109375,-35.64453125,-29.78515625,-33.203125
120.859375,-57.6171875,-33.69140625,-21.484375,0.48828125
120.86328125,-37.59765625,-30.76171875,-20.5078125,-2.9296875
120.8671875,-23.4375,-33.203125,-25.390625,-34.1796875
120.87109375,-51.26953125,-35.64453125,-29.78515625,-35.15625
120.875,-60.546875,-30.2734375,-23.4375,-36.62109375
120.87890625,-30.2734375,-30.76171875,-21.97265625,-23.92578125
120.8828125,-10.7421875,-32.2265625,-25.87890625,-17.578125
120.88671875,-21.97265625,-33.69140625,-25.390625,-34.1796875
120.890625,-45.41015625,-36.62109375,-28.3203125,-41.9921875
120.89453125,-49.31640625,-32.71484375,-27.34375,-46.38671875
120.8984375,-37.109375,-31.73828125,-29.296875,-48.33984375
120.90234375,-47.8515625,-38.0859375,-34.1796875,-35.64453125
120.90625,-57.6171875,-41.9921875,-34.1796875,-34.66796875
120.91015625,-48.828125,-34.66796875,-27.83203125,-28.80859375
120.9140625,-44.43359375,-33.203125,-24.90234375,-17.08984375
120.91796875,-40.52734375,-41.015625,-25.390625,-42.48046875
120.921875,-58.10546875,-42.48046875,-30.2734375,-39.0625
120.92578125,-51.26953125,-40.52734375,-35.15625,-18.5546875
120.9296875,-28.80859375,-38.57421875,-36.62109375,-46.875
120.93359375,-34.1796875,-38.0859375,-34.1796875,-42.48046875
120.9375,-47.36328125,-37.59765625,-31.73828125,-32.2265625
120.94140625,-50.29296875,-34.66796875,-28.3203125,-39.55078125
120.9453125,-47.8515625,-37.59765625,-30.2734375,-42.96875
120.94921875,-37.109375,-40.0390625,-35.15625,-47.36328125
120.953125,-50.29296875,-37.59765625,-35.15625,-26.85546875
120.95703125,-42.48046875,-29.78515625,-33.203125,-28.3203125
120.9609375,-39.0625,-29.78515625,-30.2734375,-40.52734375
120.96484375,-40.52734375,-35.15625,-28.3203125,-49.31640625
120.96875,-57.12890625,-34.66796875,-29.78515625,-47.8515625
120.97265625,-63.96484375,-30.2734375,-27.34375,-27.83203125
120.9765625,-22.4609375,-28.80859375,-25.390625,-28.80859375
120.98046875,-7.32421875,-32.2265625,-31.73828125,-23.92578125
120.984375,-22.4609375,-34.1796875,-33.69140625,-27.83203125
120.98828125,-50.78125,-32.2265625,-30.76171875,-21.484375
120.9921875,-67.3828125,-28.3203125,-31.25,-20.5078125
120.99609375,-53.7109375,-29.78515625,-34.66796875,-46.38671875
121.0,-40.52734375,-31.25,-38.57421875,-50.78125
121.00390625,-57.12890625,-31.73828125,-39.0625,-45.8984375
121.0078125,-64.94140625,-34.1796875,-38.0859375,-33.203125
121.01171875,-37.109375,-32.71484375,-33.69140625,-30.2734375
121.015625,-14.6484375,-30.76171875,-32.2265625,-35.15625
121.01953125,-45.8984375,-31.25,-34.1796875,-37.109375
121.0234375,-56.640625,-26.85546875,-31.73828125,-46.875
121.02734375,-25.390625,-25.87890625,-32.71484375,-43.9453125
121.03125,-30.76171875,-32.2265625,-35.64453125,-40.52734375
121.03515625,-46.875,-36.62109375,-38.0859375,-27.34375
121.0390625,-60.05859375,-37.59765625,-41.015625,-16.6015625
121.04296875,-64.94140625,-38.0859375,-43.9453125,-38.57421875
121.046875,-39.55078125,-40.0390625,-41.50390625,-47.8515625
121.05078125,-38.0859375,-38.0859375,-37.59765625,-45.41015625
121.0546875,-62.5,-36.62109375,-34.1796875,-53.7109375
121.05859375,-43.9453125,-35.15625,-30.76171875,-57.6171875
121.0625,-25.390625,-32.71484375,-33.203125,-34.1796875
121.06640625,-35.15625,-30.2734375,-35.15625,-35.64453125
121.0703125,-37.59765625,-28.80859375,-34.66796875,-47.8515625
121.07421875,-27.83203125,-32.2265625,-38.0859375,-38.57421875
121.078125,-13.18359375,-35.15625,-41.50390625,-26.85546875
121.08203125,-21.97265625,-34.1796875,-38.57421875,-31.25
121.0859375,-40.0390625,-36.1328125,-39.0625,-39.55078125
121.08984375,-37.109375,-37.59765625,-43.9453125,-42.96875
121.09375,-41.015625,-34.66796875,-41.50390625,-28.3203125
121.09765625,-30.2734375,-31.25,-36.62109375,-37.109375
121.1015625,-15.625,-31.25,-34.66796875,-42.96875
121.10546875,-49.31640625,-33.69140625,-38.0859375,-40.0390625
121.109375,-20.5078125,-32.71484375,-35.64453125,-36.62109375
121.11328125,10.7421875,-29.78515625,-31.25,-8.30078125
121.1171875,-42.48046875,-33.203125,-32.71484375,-19.04296875
121.12109375,-69.3359375,-36.1328125,-38.0859375,-53.7109375
121.125,-49.31640625,-33.69140625,-45.8984375,-37.59765625
121.12890625,-23.92578125,-34.1796875,-41.9921875,-34.1796875
121.1328125,-25.87890625,-34.1796875,-35.64453125,-36.1328125
121.13671875,-33.69140625,-31.73828125,-44.921875,-39.0625
121.140625,-19.53125,-32.2265625,-47.36328125,-51.7578125
121.14453125,1.46484375,-30.2734375,-45.41015625,-28.3203125
121.1484375,-36.62109375,-27.83203125,-50.29296875,-40.0390625
121.15234375,-49.8046875,-26.85546875,-48.828125,-52.24609375
121.15625,-24.90234375,-27.83203125,-44.43359375,-34.66796875
121.16015625,-29.78515625,-32.2265625,-43.45703125,-34.66796875
121.1640625,-7.32421875,-29.78515625,-44.921875,-47.36328125
121.16796875,-12.6953125,-24.90234375,-44.921875,-55.6640625
121.171875,-32.71484375,-25.87890625,-47.8515625,-48.33984375
121.17578125,-24.90234375,-29.296875,-49.8046875,-40.0390625
121.1796875,-33.69140625,-31.73828125,-45.41015625,-36.1328125
121.18359375,-45.41015625,-30.76171875,-46.38671875,-39.0625
121.1875,-38.57421875,-31.25,-44.921875,-26.85546875
121.19140625,-57.6171875,-31.73828125,-38.57421875,-25.87890625
121.1953125,-51.26953125,-32.2265625,-36.62109375,-45.41015625
121.19921875,-31.25,-36.1328125,-37.109375,-33.203125
121.203125,-50.29296875,-37.59765625,-36.1328125,-25.390625
121.20703125,-45.8984375,-34.66796875,-34.66796875,-37.59765625
121.2109375,-32.71484375,-30.76171875,-34.1796875,-43.9453125
121.21484375,-13.18359375,-31.73828125,-40.0390625,-47.8515625
121.21875,-37.59765625,-40.0390625,-45.41015625,-44.921875
121.22265625,-62.01171875,-36.1328125,-40.0390625,-38.0859375
121.2265625,-21.484375,-33.69140625,-27.83203125,-25.87890625
121.23046875,-29.296875,-34.66796875,-24.4140625,-36.62109375
121.234375,-57.12890625,-25.87890625,-17.578125,-49.31640625
121.23828125,-53.7109375,-21.97265625,-9.27734375,-47.36328125
121.2421875,-88.8671875,-20.99609375,-17.578125,-61.03515625
121.24609375,-100.09765625,-15.13671875,-21.97265625,-78.125
121.25,-81.0546875,-13.671875,-18.5546875,-89.84375
121.25390625,-95.703125,-14.6484375,-14.16015625,-94.23828125
121.2578125,-108.88671875,-11.71875,-13.671875,-105.46875
121.26171875,-114.74609375,-9.27734375,-5.859375,-126.953125
121.265625,-132.32421875,-4.39453125,0.0,-137.6953125
121.26953125,-172.36328125,-7.8125,-1.953125,-151.3671875
121.2734375,-176.26953125,-23.92578125,4.39453125,-150.87890625
121.27734375,-148.92578125,-30.2734375,4.39453125,-132.32421875
121.28125,-167.48046875,-29.78515625,3.90625,-152.34375
121.28515625,-176.26953125,-29.296875,-1.46484375,-177.24609375
121.2890625,-193.359375,-32.71484375,-12.20703125,-171.38671875
121.29296875,-196.77734375,-36.62109375,-15.625,-157.71484375
121.296875,-161.1328125,-37.109375,-15.625,-165.0390625
121.30078125,-158.69140625,-46.875,-20.5078125,-138.671875
121.3046875,-146.484375,-45.8984375,-26.3671875,-121.58203125
121.30859375,-114.2578125,-32.71484375,-23.4375,-129.8828125
121.3125,-93.26171875,-39.55078125,-19.04296875,-109.86328125
121.31640625,-96.19140625,-41.9921875,-20.01953125,-90.8203125
121.3203125,-77.1484375,-32.2265625,-22.4609375,-68.84765625
121.32421875,-67.87109375,-26.3671875,-23.92578125,-71.2890625
121.328125,-41.015625,-27.34375,-25.87890625,-80.56640625
121.33203125,-24.90234375,-25.87890625,-30.2734375,-51.7578125
121.3359375,-62.98828125,-24.90234375,-33.69140625,-37.109375
121.33984375,-58.59375,-27.83203125,-31.25,-38.0859375
121.34375,-23.92578125,-28.3203125,-30.76171875,-9.765625
121.34765625,-3.90625,-29.296875,-35.15625,2.44140625
121.3515625,-14.6484375,-28.80859375,-41.015625,-41.50390625
121.35546875,-36.62109375,-29.296875,-47.36328125,-42.96875
121.359375,-4.8828125,-31.25,-43.45703125,-17.08984375
121.36328125,0.48828125,-29.78515625,-40.52734375,-21.97265625
121.3671875,-9.27734375,-29.78515625,-45.8984375,-3.90625
121.37109375,-17.578125,-29.296875,-43.45703125,8.7890625
121.375,-15.13671875,-29.78515625,-37.59765625,5.859375
121.37890625,7.32421875,-26.85546875,-35.15625,10.25390625
121.3828125,14.16015625,-22.4609375,-36.62109375,28.80859375
121.38671875,-0.9765625,-25.390625,-41.50390625,17.08984375
121.390625,-5.37109375,-27.34375,-42.96875,28.3203125
121.39453125,28.3203125,-26.85546875,-45.41015625,32.71484375
121.3984375,46.875,-28.80859375,-47.36328125,-2.44140625
121.40234375,10.25390625,-35.64453125,-43.45703125,3.90625
121.40625,-0.48828125,-34.66796875,-40.52734375,4.8828125
121.41015625,16.6015625,-27.34375,-37.59765625,16.6015625
121.4140625,9.765625,-29.296875,-35.64453125,17.578125
121.41796875,7.32421875,-30.2734375,-39.0625,11.23046875
121.421875,-13.18359375,-28.80859375,-39.0625,26.3671875
121.42578125,-0.9765625,-32.71484375,-37.59765625,16.11328125
121.4296875,31.73828125,-30.76171875,-40.0390625,2.44140625
121.43359375,28.3203125,-31.25,-41.015625,16.6015625
121.4375,-12.20703125,-41.015625,-37.109375,35.64453125
121.44140625,-17.08984375,-40.52734375,-31.73828125,21.484375
121.4453125,12.6953125,-32.71484375,-39.55078125,2.44140625
121.44921875,20.99609375,-31.25,-36.1328125,2.9296875
121.453125,13.18359375,-34.1796875,-30.76171875,31.73828125
121.45703125,-6.34765625,-38.0859375,-41.50390625,25.390625
121.4609375,12.6953125,-33.203125,-40.0390625,-18.06640625
121.46484375,20.99609375,-31.73828125,-41.015625,-11.71875
121.46875,-4.39453125,-35.64453125,-41.015625,2.44140625
121.47265625,-13.671875,-32.2265625,-29.78515625,9.27734375
121.4765625,-0.48828125,-29.296875,-31.73828125,13.18359375
121.48046875,2.44140625,-31.73828125,-33.203125,9.765625
121.484375,13.18359375,-33.69140625,-32.2265625,-0.9765625
121.48828125,-0.9765625,-33.203125,-33.203125,1.46484375
121.4921875,-7.32421875,-31.73828125,-30.76171875,11.71875
121.49609375,22.4609375,-29.296875,-32.71484375,13.671875
121.5,13.671875,-31.73828125,-35.64453125,4.8828125
121.50390625,-15.625,-34.66796875,-36.62109375,1.46484375
121.5078125,-15.625,-34.66796875,-35.15625,10.25390625
121.51171875,15.13671875,-34.66796875,-34.66796875,6.8359375
121.515625,3.90625,-39.0625,-36.62109375,4.8828125
121.51953125,-26.85546875,-40.0390625,-36.62109375,-14.16015625
121.5234375,-23.92578125,-37.109375,-33.69140625,-8.7890625
121.52734375,-7.8125,-37.59765625,-33.69140625,-1.953125
121.53125,-17.08984375,-37.109375,-40.0390625,-15.13671875
121.53515625,-32.2265625,-35.15625,-45.41015625,-18.5546875
121.5390625,-43.45703125,-33.203125,-39.0625,-17.08984375
121.54296875,-37.59765625,-37.59765625,-38.57421875,-14.16015625
121.546875,-7.8125,-44.921875,-40.52734375,-17.578125
121.55078125,-20.01953125,-44.43359375,-36.62109375,-2.44140625
121.5546875,-47.8515625,-41.9921875,-38.0859375,-5.37109375
121.55859375,-35.64453125,-37.59765625,-33.69140625,-13.18359375
121.5625,-11.23046875,-33.69140625,-36.1328125,-11.23046875
121.56640625,-8.7890625,-29.78515625,-36.62109375,-2.9296875
121.5703125,-27.83203125,-32.71484375,-29.78515625,16.11328125
121.57421875,-27.34375,-37.59765625,-27.83203125,16.11328125
121.578125,-18.06640625,-38.0859375,-29.78515625,-2.44140625
121.58203125,-1.46484375,-31.73828125,-28.80859375,-4.39453125
121.5859375,-12.20703125,-33.203125,-24.90234375,5.37109375
121.58984375,-35.15625,-40.0390625,-28.3203125,-14.16015625
121.59375,-5.859375,-40.52734375,-32.2265625,-11.71875
121.59765625,19.53125,-36.62109375,-29.78515625,12.20703125
121.6015625,-15.13671875,-35.15625,-37.59765625,-3.41796875
121.60546875,-41.9921875,-37.59765625,-41.50390625,-16.11328125
121.609375,-26.3671875,-37.59765625,-36.1328125,8.30078125
121.61328125,-16.11328125,-36.1328125,-37.109375,-5.37109375
121.6171875,-15.13671875,-34.1796875,-31.25,-16.11328125
121.62109375,-13.18359375,-31.73828125,-27.34375,-6.34765625
121.625,-14.16015625,-31.25,-30.76171875,-10.7421875
121.62890625,7.32421875,-29.78515625,-38.0859375,-22.94921875
121.6328125,25.390625,-24.90234375,-46.875,-28.3203125
121.63671875,-10.7421875,-26.3671875,-45.41015625,-23.4375
121.640625,-31.25,-26.3671875,-34.66796875,-15.625
121.64453125,16.6015625,-24.4140625,-32.2265625,-2.9296875
121.6484375,41.9921875,-22.94921875,-37.109375,22.4609375
121.65234375,6.8359375,-23.92578125,-36.1328125,-7.32421875
121.65625,-36.62109375,-25.390625,-23.4375,-40.52734375
121.66015625,-31.25,-22.94921875,-26.3671875,-36.62109375
121.6640625,1.953125,-23.4375,-34.1796875,-37.109375
121.66796875,6.34765625,-27.34375,-25.87890625,-22.94921875
121.671875,-16.6015625,-32.71484375,-21.97265625,-8.7890625
121.67578125,-8.30078125,-32.2265625,-26.85546875,-27.34375
121.6796875,13.18359375,-29.78515625,-30.76171875,-46.38671875
121.68359375,-5.37109375,-29.78515625,-31.73828125,-35.64453125
121.6875,-10.25390625,-25.87890625,-25.87890625,-26.85546875
121.69140625,7.32421875,-20.01953125,-20.01953125,-17.08984375
121.6953125,31.25,-19.04296875,-22.4609375,-16.11328125
121.69921875,18.06640625,-24.4140625,-25.87890625,-22.4609375
121.703125,-13.18359375,-23.92578125,-27.83203125,-34.1796875
121.70703125,-36.1328125,-25.390625,-22.94921875,-39.0625
121.7109375,-17.08984375,-27.34375,-23.92578125,-26.85546875
121.71484375,23.92578125,-22.94921875,-29.296875,-15.625
121.71875,9.765625,-24.90234375,-27.83203125,-5.37109375
121.72265625,-8.7890625,-27.83203125,-29.78515625,-15.13671875
121.7265625,1.953125,-24.90234375,-27.34375,-13.671875
121.73046875,9.765625,-27.34375,-29.296875,-29.296875
121.734375,0.0,-28.80859375,-34.1796875,-27.34375
121.73828125,10.25390625,-25.87890625,-28.80859375,-20.01953125
121.7421875,-5.859375,-27.34375,-33.203125,-30.2734375
121.74609375,0.0,-29.296875,-40.52734375,-31.25
121.75,18.06640625,-25.390625,-32.2265625,-33.69140625
121.75390625,11.71875,-21.97265625,-32.71484375,-34.1796875
121.7578125,-21.97265625,-24.90234375,-32.71484375,-29.296875
121.76171875,-27.34375,-28.80859375,-27.34375,-4.39453125
121.765625,30.2734375,-26.3671875,-31.25,-15.13671875
121.76953125,26.3671875,-27.34375,-32.2265625,-40.0390625
121.7734375,-7.32421875,-28.80859375,-30.76171875,-31.25
121.77734375,13.671875,-26.3671875,-24.90234375,-19.04296875
121.78125,26.85546875,-29.296875,-26.85546875,-20.99609375
121.78515625,-9.765625,-26.3671875,-37.109375,-23.92578125
121.7890625,-21.97265625,-24.90234375,-34.1796875,-19.04296875
121.79296875,-12.6953125,-26.3671875,-23.92578125,-4.39453125
121.796875,5.37109375,-26.85546875,-20.01953125,-25.87890625
121.80078125,-4.8828125,-23.92578125,-19.04296875,-7.8125
121.8046875,-19.04296875,-22.4609375,-21.484375,13.671875
121.80859375,-0.9765625,-28.80859375,-28.80859375,-50.29296875
121.8125,-7.32421875,-31.25,-31.73828125,-48.33984375
121.81640625,-18.06640625,-31.73828125,-29.78515625,-20.99609375
121.8203125,-10.25390625,-32.2265625,-26.3671875,-27.83203125
121.82421875,-19.53125,-30.76171875,-26.3671875,-14.16015625
121.828125,-12.20703125,-33.203125,-29.296875,-27.83203125
121.83203125,13.671875,-28.3203125,-27.83203125,-38.57421875
121.8359375,-3.41796875,-27.34375,-26.85546875,-22.94921875
121.83984375,-17.578125,-32.2265625,-26.85546875,-20.5078125
121.84375,-18.06640625,-35.64453125,-31.25,-29.296875
121.84765625,-23.92578125,-36.62109375,-34.1796875,-15.13671875
121.8515625,-3.41796875,-37.109375,-39.55078125,-23.92578125
121.85546875,-20.01953125,-38.57421875,-44.921875,-52.24609375
121.859375,-49.8046875,-37.109375,-41.9921875,-40.0390625
121.86328125,-15.13671875,-35.64453125,-36.1328125,-30.76171875
121.8671875,-24.90234375,-33.69140625,-35.64453125,-44.43359375
121.87109375,-53.7109375,-34.66796875,-34.66796875,-50.78125
121.875,-26.3671875,-36.62109375,-29.78515625,-49.8046875
121.87890625,-28.3203125,-33.203125,-27.34375,-62.98828125
121.8828125,-54.19921875,-31.25,-20.01953125,-70.80078125
121.88671875,-77.63671875,-35.64453125,-20.99609375,-59.5703125
121.890625,-78.61328125,-32.2265625,-17.08984375,-61.5234375
121.89453125,-60.05859375,-27.83203125,-9.27734375,-74.21875
121.8984375,-78.125,-31.73828125,-13.18359375,-95.21484375
121.90234375,-111.81640625,-29.78515625,-13.671875,-114.74609375
121.90625,-123.046875,-25.390625,-11.71875,-112.3046875
121.91015625,-144.53125,-23.92578125,3.41796875,-122.0703125
121.9140625,-138.671875,-20.99609375,14.16015625,-122.0703125
121.91796875,-140.625,-21.484375,9.765625,-131.8359375
121.921875,-187.01171875,-24.90234375,4.39453125,-154.296875
121.92578125,-201.171875,-23.92578125,3.41796875,-150.87890625
121.9296875,-164.0625,-24.90234375,8.7890625,-150.87890625
121.93359375,-173.33984375,-25.390625,8.30078125,-168.9453125
121.9375,-213.8671875,-17.578125,12.6953125,-175.78125
121.94140625,-198.2421875,-14.16015625,15.13671875,-180.6640625
121.9453125,-199.21875,-16.11328125,12.6953125,-188.96484375
121.94921875,-196.2890625,-19.04296875,15.625,-178.7109375
121.953125,-170.8984375,-24.90234375,12.20703125,-173.33984375
121.95703125,-176.7578125,-28.3203125,8.30078125,-164.0625
121.9609375,-171.38671875,-28.3203125,10.7421875,-157.71484375
121.96484375,-158.69140625,-27.83203125,18.5546875,-137.20703125
121.96875,-170.8984375,-21.97265625,20.99609375,-143.06640625
121.97265625,-163.57421875,-18.5546875,17.578125,-161.1328125
121.9765625,-149.90234375,-24.90234375,17.578125,-129.39453125
121.98046875,-119.62890625,-26.85546875,19.53125,-99.609375
121.984375,-126.953125,-23.4375,21.484375,-111.328125
121.98828125,-148.92578125,-22.4609375,21.97265625,-101.07421875
121.9921875,-123.53515625,-23.4375,16.11328125,-91.796875
121.99609375,-98.6328125,-27.34375,8.30078125,-103.02734375
122.0,-89.35546875,-32.2265625,3.41796875,-83.984375
122.00390625,-106.93359375,-34.1796875,2.44140625,-73.2421875
122.0078125,-91.30859375,-33.69140625,8.30078125,-69.3359375
122.01171875,-69.82421875,-35.15625,11.71875,-60.05859375
122.015625,-57.6171875,-41.015625,10.7421875,-37.59765625
122.01953125,-31.25,-41.9921875,6.34765625,-32.71484375
122.0234375,-26.85546875,-40.0390625,2.44140625,-24.4140625
122.02734375,2.9296875,-37.59765625,-0.9765625,-16.6015625
122.03125,40.0390625,-38.0859375,-4.39453125,-18.06640625
122.03515625,16.11328125,-36.1328125,3.41796875,0.48828125
122.0390625,-11.23046875,-39.55078125,6.34765625,19.04296875
122.04296875,19.53125,-42.48046875,0.9765625,35.15625
122.046875,48.33984375,-38.57421875,3.41796875,51.26953125
122.05078125,45.41015625,-38.57421875,-0.9765625,60.05859375
122.0546875,11.71875,-33.69140625,-5.859375,83.0078125
122.05859375,15.625,-35.15625,-4.8828125,46.875
122.0625,51.26953125,-42.48046875,-9.27734375,31.73828125
122.06640625,61.03515625,-41.9921875,-14.6484375,63.96484375
122.0703125,45.8984375,-38.0859375,-14.6484375,67.87109375
122.07421875,9.765625,-38.57421875,-22.4609375,47.8515625
122.078125,44.921875,-37.59765625,-29.78515625,52.734375
122.08203125,64.94140625,-37.59765625,-31.73828125,70.80078125
122.0859375,41.9921875,-37.59765625,-28.3203125,70.3125
122.08984375,46.875,-36.62109375,-28.3203125,59.08203125
122.09375,55.17578125,-35.64453125,-32.2265625,58.59375
122.09765625,46.875,-32.71484375,-31.73828125,66.89453125
122.1015625,38.0859375,-33.203125,-33.69140625,54.6875
122.10546875,32.71484375,-31.25,-34.66796875,61.03515625
122.109375,32.71484375,-31.25,-41.015625,58.59375
122.11328125,33.203125,-35.15625,-39.0625,50.78125
122.1171875,32.71484375,-31.25,-31.25,56.640625
122.12109375,25.87890625,-31.25,-33.69140625,59.5703125
122.125,1.953125,-36.62109375,-34.66796875,40.0390625
122.12890625,4.8828125,-34.66796875,-38.57421875,32.71484375
122.1328125,22.4609375,-31.25,-39.0625,33.69140625
122.13671875,17.08984375,-35.15625,-35.15625,26.85546875
122.140625,9.765625,-33.203125,-35.15625,51.26953125
122.14453125,17.578125,-34.66796875,-32.2265625,53.7109375
122.1484375,17.08984375,-34.66796875,-31.73828125,37.109375
122.15234375,2.9296875,-32.71484375,-37.59765625,36.1328125
122.15625,-0.48828125,-36.1328125,-38.0859375,33.203125
122.16015625,15.625,-36.1328125,-40.52734375,35.64453125
122.1640625,14.16015625,-35.64453125,-48.828125,24.4140625
122.16796875,3.41796875,-36.1328125,-45.41015625,11.23046875
122.171875,-11.23046875,-37.59765625,-41.50390625,27.83203125
122.17578125,-7.8125,-34.66796875,-38.57421875,30.2734375
122.1796875,10.7421875,-37.59765625,-38.57421875,30.76171875
122.18359375,5.859375,-40.52734375,-36.62109375,17.578125
122.1875,-9.27734375,-38.57421875,-30.76171875,26.3671875
122.19140625,-8.30078125,-36.62109375,-30.2734375,34.66796875
122.1953125,13.18359375,-34.66796875,-35.15625,37.109375
122.19921875,45.41015625,-39.0625,-41.9921875,62.98828125
122.203125,31.25,-39.55078125,-40.52734375,33.69140625
122.20703125,-24.90234375,-38.57421875,-43.45703125,-22.4609375
122.2109375,4.8828125,-35.15625,-53.7109375,-40.52734375
122.21484375,34.66796875,-31.25,-61.03515625,-29.78515625
122.21875,13.671875,-29.78515625,-67.3828125,-16.6015625
122.22265625,9.765625,-29.296875,-67.3828125,-14.6484375
122.2265625,9.765625,-31.73828125,-69.3359375,-41.50390625
122.23046875,23.92578125,-41.015625,-85.9375,-64.94140625
122.234375,4.8828125,-44.43359375,-87.890625,-59.08203125
122.23828125,-11.23046875,-42.48046875,-83.49609375,-41.015625
122.2421875,1.46484375,-40.0390625,-86.42578125,-49.8046875
122.24609375,28.3203125,-35.64453125,-88.37890625,-58.10546875
122.25,10.25390625,-38.57421875,-96.19140625,-49.31640625
122.25390625,-19.04296875,-38.57421875,-91.30859375,-53.7109375
122.2578125,-17.578125,-39.55078125,-80.078125,-39.0625
122.26171875,-24.90234375,-42.96875,-85.44921875,-60.05859375
122.265625,-6.34765625,-42.96875,-86.42578125,-64.94140625
122.26953125,-16.6015625,-40.0390625,-78.61328125,-42.96875
122.2734375,-28.3203125,-39.55078125,-74.21875,-39.0625
122.27734375,-15.625,-39.55078125,-73.73046875,-21.97265625
122.28125,4.8828125,-40.52734375,-74.21875,-32.71484375
122.28515625,3.41796875,-40.52734375,-70.80078125,-60.05859375
122.2890625,-17.578125,-43.45703125,-70.3125,-27.34375
122.29296875,-4.8828125,-42.48046875,-72.265625,-25.87890625
122.296875,14.6484375,-37.59765625,-62.98828125,-71.2890625
122.30078125,-29.296875,-36.62109375,-62.01171875,-45.41015625
122.3046875,-8.30078125,-38.0859375,-65.91796875,-20.5078125
122.30859375,45.41015625,-40.52734375,-60.546875,-24.4140625
122.3125,-3.90625,-40.0390625,-57.6171875,-14.6484375
122.31640625,-20.99609375,-39.0625,-57.12890625,-16.6015625
122.3203125,-29.78515625,-40.52734375,-55.17578125,-20.01953125
122.32421875,-29.78515625,-42.96875,-54.19921875,-38.57421875
122.328125,-25.390625,-41.015625,-52.24609375,-49.8046875
122.33203125,-28.3203125,-35.15625,-51.7578125,-41.015625
122.3359375,-38.0859375,-36.1328125,-51.26953125,-33.69140625
122.33984375,-42.48046875,-37.109375,-52.24609375,-33.69140625
122.34375,-12.20703125,-32.2265625,-46.38671875,-30.2734375
122.34765625,20.01953125,-30.76171875,-40.0390625,-2.44140625
122.3515625,25.87890625,-34.66796875,-43.45703125,-35.64453125
122.35546875,-0.9765625,-36.1328125,-50.78125,-50.29296875
122.359375,-11.23046875,-32.71484375,-47.8515625,-29.296875
122.36328125,-10.7421875,-33.69140625,-37.59765625,-32.2265625
122.3671875,-27.34375,-41.015625,-40.0390625,-44.921875
122.37109375,-41.9921875,-44.921875,-43.9453125,-28.3203125
122.375,-19.04296875,-48.33984375,-40.52734375,-2.44140625
122.37890625,-12.20703125,-53.7109375,-44.921875,-15.625
122.3828125,-30.76171875,-55.17578125,-49.8046875,-20.5078125
122.38671875,-22.94921875,-52.24609375,-45.41015625,-37.109375
122.390625,-3.90625,-51.7578125,-37.109375,-54.6875
122.39453125,-26.85546875,-53.7109375,-37.59765625,-33.69140625
122.3984375,-18.06640625,-52.24609375,-38.57421875,-21.97265625
122.40234375,-17.08984375,-47.8515625,-35.64453125,-46.38671875
122.40625,-0.48828125,-43.45703125,-35.15625,-31.25
122.41015625,25.87890625,-42.96875,-38.0859375,-38.57421875
122.4140625,-23.4375,-41.9921875,-33.69140625,-47.36328125
122.41796875,-75.68359375,-43.45703125,-30.2734375,-31.73828125
122.421875,-43.9453125,-52.24609375,-37.59765625,-43.9453125
122.42578125,-17.08984375,-58.10546875,-39.55078125,-59.5703125
122.4296875,-37.109375,-57.12890625,-30.76171875,-26.85546875
122.43359375,-36.62109375,-60.546875,-35.15625,1.46484375
122.4375,-37.109375,-61.5234375,-41.015625,-61.03515625
122.44140625,-35.15625,-59.08203125,-35.64453125,-74.70703125
122.4453125,-24.90234375,-55.17578125,-31.73828125,-16.6015625
122.44921875,-32.71484375,-58.59375,-36.1328125,-45.41015625
122.453125,-60.546875,-55.6640625,-34.1796875,-51.7578125
122.45703125,-83.49609375,-49.31640625,-30.2734375,-30.76171875
122.4609375,-39.0625,-52.734375,-34.1796875,-69.3359375
122.46484375,-9.765625,-52.734375,-36.1328125,-69.3359375
122.46875,-48.33984375,-49.31640625,-29.296875,-30.76171875
122.47265625,-83.49609375,-46.38671875,-27.83203125,-42.48046875
122.4765625,-78.125,-41.50390625,-29.296875,-64.453125
122.48046875,-8.7890625,-42.48046875,-27.83203125,-59.08203125
122.484375,2.44140625,-46.38671875,-27.83203125,-57.12890625
122.48828125,-60.05859375,-44.921875,-26.85546875,-47.8515625
122.4921875,-63.96484375,-40.0390625,-28.80859375,-28.80859375
122.49609375,-61.5234375,-39.0625,-31.73828125,-52.734375
122.5,-50.29296875,-38.57421875,-32.71484375,-77.1484375
122.50390625,-53.22265625,-40.52734375,-34.1796875,-53.22265625
122.5078125,-37.109375,-43.45703125,-34.66796875,-52.734375
122.51171875,-52.24609375,-45.41015625,-27.34375,-26.3671875
122.515625,-82.03125,-47.36328125,-32.2265625,-83.0078125
122.51953125,-67.3828125,-46.38671875,-36.62109375,-74.70703125
122.5234375,-54.6875,-43.9453125,-32.2265625,-21.97265625
122.52734375,-92.28515625,-43.45703125,-37.59765625,-95.21484375
122.53125,-82.51953125,-49.31640625,-40.52734375,-103.515625
122.53515625,-84.9609375,-52.24609375,-38.57421875,-70.80078125
122.5390625,-73.73046875,-53.22265625,-37.109375,-73.2421875
122.54296875,-85.9375,-57.6171875,-40.52734375,-94.7265625
122.546875,-80.56640625,-61.5234375,-39.0625,-36.1328125
122.55078125,-54.19921875,-56.640625,-41.9921875,-60.05859375
122.5546875,-112.79296875,-54.6875,-39.0625,-102.5390625
122.55859375,-126.46484375,-55.6640625,-31.73828125,-90.33203125
122.5625,-141.11328125,-53.7109375,-39.0625,-127.9296875
122.56640625,-26.85546875,-56.15234375,-41.015625,-62.5
122.5703125,-3.41796875,-54.6875,-30.76171875,-25.390625
122.57421875,-156.73828125,-48.33984375,-20.99609375,-64.94140625
122.578125,-79.58984375,-51.26953125,-29.78515625,-55.6640625
122.58203125,-37.109375,-54.6875,-45.41015625,-99.609375
122.5859375,-67.87109375,-59.08203125,-40.0390625,-109.86328125
122.58984375,-127.44140625,-63.96484375,-32.71484375,-77.1484375
122.59375,-159.1796875,-60.546875,-37.59765625,-103.02734375
122.59765625,-120.1171875,-56.15234375,-33.69140625,-112.3046875
122.6015625,-105.46875,-57.6171875,-35.15625,-81.0546875
122.60546875,-109.86328125,-53.22265625,-32.71484375,-66.89453125
122.609375,-74.70703125,-51.26953125,-25.390625,-53.7109375
122.61328125,-65.4296875,-53.22265625,-28.3203125,-73.73046875
122.6171875,-92.7734375,-50.29296875,-37.109375,-110.3515625
122.62109375,-64.94140625,-50.78125,-45.41015625,-103.02734375
122.625,-101.07421875,-43.9453125,-38.57421875,-62.98828125
122.62890625,-147.94921875,-32.71484375,-37.109375,-78.61328125
122.6328125,-136.23046875,-39.55078125,-33.69140625,-118.1640625
122.63671875,-118.65234375,-41.015625,-25.390625,-63.4765625
122.640625,-85.9375,-30.76171875,-26.85546875,-49.8046875
122.64453125,-76.171875,-27.34375,-32.2265625,-107.91015625
122.6484375,-127.9296875,-27.83203125,-29.296875,-78.125
122.65234375,-134.765625,-28.80859375,-31.25,-58.10546875
122.65625,-111.328125,-28.3203125,-29.78515625,-94.23828125
122.66015625,-109.86328125,-28.3203125,-31.25,-87.890625
122.6640625,-94.23828125,-26.85546875,-31.73828125,-41.50390625
122.66796875,-114.74609375,-28.3203125,-25.390625,-72.75390625
122.671875,-103.515625,-26.3671875,-40.52734375,-128.90625
122.67578125,-48.33984375,-24.4140625,-42.96875,-83.49609375
122.6796875,-82.51953125,-26.85546875,-22.4609375,-40.52734375
122.68359375,-116.69921875,-22.4609375,-23.92578125,-74.70703125
122.6875,-89.35546875,-19.53125,-30.2734375,-94.23828125
122.69140625,-84.47265625,-17.08984375,-23.92578125,-83.0078125
122.6953125,-49.8046875,-13.671875,-22.94921875,-80.078125
122.69921875,-44.921875,-19.53125,-32.71484375,-67.87109375
122.703125,-30.2734375,-21.484375,-34.1796875,-27.34375
122.70703125,-34.66796875,-18.5546875,-24.90234375,-14.16015625
122.7109375,-84.47265625,-14.6484375,-43.45703125,-88.8671875
122.71484375,-36.62109375,-12.6953125,-46.38671875,-80.078125
122.71875,-33.203125,-22.94921875,-33.69140625,-43.9453125
122.72265625,-77.63671875,-25.87890625,-52.24609375,-121.09375
122.7265625,-45.8984375,-24.90234375,-45.8984375,-71.77734375
122.73046875,2.9296875,-29.296875,-37.59765625,-40.0390625
122.734375,-43.9453125,-33.203125,-41.015625,-92.7734375
122.73828125,-72.75390625,-37.59765625,-37.59765625,-67.3828125
122.7421875,-99.609375,-45.41015625,-52.24609375,-60.546875
122.74609375,-90.8203125,-50.78125,-49.8046875,-91.30859375
122.75,-35.64453125,-48.828125,-47.36328125,-61.03515625
122.75390625,-70.3125,-39.0625,-60.546875,-70.3125
122.7578125,-43.45703125,-28.3203125,-35.64453125,-75.68359375
122.76171875,-9.765625,-46.38671875,-29.296875,-36.1328125
122.765625,-20.5078125,-76.66015625,-45.41015625,-73.73046875
122.76953125,-10.7421875,-84.47265625,-26.3671875,-5.37109375
122.7734375,-64.94140625,-80.078125,-26.3671875,-6.8359375
122.77734375,-120.1171875,-83.0078125,-67.87109375,-143.06640625
122.78125,-58.10546875,-85.44921875,-68.359375,-124.51171875
122.78515625,-30.76171875,-81.54296875,-37.109375,-98.14453125
122.7890625,-85.9375,-84.47265625,-57.6171875,-76.171875
122.79296875,-83.984375,-94.23828125,-87.40234375,-97.65625
122.796875,-31.73828125,-121.58203125,-44.921875,-70.3125
122.80078125,3.41796875,-138.18359375,9.27734375,2.44140625
122.8046875,-35.64453125,-138.18359375,-3.90625,-66.89453125
122.80859375,-54.19921875,-138.671875,-12.6953125,-3.41796875
122.8125,-14.16015625,-128.41796875,-9.27734375,-7.32421875
122.81640625,-27.83203125,-125.0,-31.73828125,-105.95703125
122.8203125,-27.34375,-129.39453125,-29.78515625,-24.90234375
122.82421875,1.46484375,-124.51171875,-16.11328125,-32.2265625
122.828125,-33.69140625,-124.51171875,-23.4375,-90.33203125
122.83203125,-81.0546875,-119.62890625,-28.80859375,-38.57421875
122.8359375,-96.19140625,-136.71875,-52.734375,-11.71875
122.83984375,-210.9375,-253.41796875,-200.1953125,-188.4765625
122.84375,-395.01953125,-348.6328125,-363.28125,-404.296875
122.84765625,-476.5625,-361.328125,-425.29296875,-490.72265625
122.8515625,-409.1796875,-341.796875,-374.51171875,-415.52734375
122.85546875,-344.7265625,-312.98828125,-308.59375,-303.22265625
122.859375,-317.3828125,-297.36328125,-311.03515625,-324.21875
122.86328125,-291.9921875,-283.69140625,-306.15234375,-287.59765625
122.8671875,-287.59765625,-270.99609375,-299.31640625,-286.1328125
122.87109375,-321.2890625,-257.8125,-276.3671875,-319.82421875
122.875,-327.1484375,-240.72265625,-249.0234375,-234.375
122.87890625,-287.109375,-224.609375,-242.1875,-245.1171875
122.8828125,-280.76171875,-214.84375,-217.7734375,-290.0390625
122.88671875,-285.64453125,-201.171875,-205.078125,-250.9765625
122.890625,-236.81640625,-187.5,-199.70703125,-224.609375
122.89453125,-192.3828125,-175.78125,-179.19921875,-196.2890625
122.8984375,-208.49609375,-162.109375,-165.0390625,-91.30859375
122.90234375,-172.8515625,-154.296875,-172.8515625,-160.15625
122.90625,-232.421875,-146.484375,-191.40625,-253.90625
122.91015625,-229.98046875,-133.30078125,-154.296875,-205.078125
122.9140625,-140.625,-125.9765625,-97.65625,-113.28125
122.91796875,-171.38671875,-121.09375,-100.09765625,-95.21484375
122.921875,-154.78515625,-110.3515625,-104.00390625,-101.5625
122.92578125,-80.078125,-101.07421875,-95.21484375,-104.98046875
122.9296875,-83.984375,-95.21484375,-88.37890625,-82.51953125
122.93359375,-157.71484375,-92.7734375,-93.26171875,-76.171875
122.9375,-148.4375,-95.21484375,-90.8203125,-124.51171875
122.94140625,-99.609375,-92.28515625,-82.03125,-96.19140625
122.9453125,-76.66015625,-82.03125,-77.63671875,-96.6796875
122.94921875,-92.28515625,-80.078125,-68.84765625,-36.62109375
122.953125,-105.46875,-76.66015625,-66.40625,-58.59375
122.95703125,-96.19140625,-71.77734375,-69.3359375,-83.49609375
122.9609375,-83.0078125,-75.1953125,-63.96484375,-0.9765625
122.96484375,-47.8515625,-71.77734375,-59.08203125,-62.01171875
122.96875,-67.87109375,-72.265625,-58.10546875,-83.0078125
122.97265625,-129.8828125,-72.265625,-54.6875,-52.734375
122.9765625,-71.77734375,-60.546875,-49.31640625,-60.05859375
122.98046875,-15.13671875,-40.52734375,-19.53125,-19.53125
122.984375,-16.11328125,-14.6484375,21.484375,26.85546875
122.98828125,8.7890625,8.30078125,42.96875,40.0390625
122.9921875,50.29296875,22.94921875,49.31640625,72.75390625
122.99609375,62.01171875,36.1328125,51.26953125,75.1953125
123.0,5.859375,43.9453125,56.15234375,87.890625
123.00390625,-4.8828125,49.31640625,61.5234375,82.51953125
123.0078125,61.5234375,56.640625,60.05859375,63.4765625
123.01171875,59.08203125,56.640625,67.3828125,102.05078125
123.015625,16.6015625,54.19921875,72.75390625,126.953125
123.01953125,-15.13671875,49.8046875,66.40625,92.28515625
123.0234375,-19.04296875,38.57421875,63.4765625,61.03515625
123.02734375,9.765625,38.57421875,65.91796875,81.54296875
123.03125,-18.06640625,42.96875,65.4296875,89.84375
123.03515625,-20.5078125,42.96875,63.96484375,73.2421875
123.0390625,-2.44140625,42.96875,62.98828125,73.73046875
123.04296875,-11.71875,41.015625,61.5234375,90.8203125
123.046875,73.2421875,41.9921875,55.17578125,83.49609375
123.05078125,36.62109375,43.45703125,44.921875,95.703125
123.0546875,-70.80078125,44.43359375,49.31640625,69.82421875
123.05859375,-47.8515625,44.43359375,65.4296875,95.21484375
123.0625,-28.80859375,40.52734375,63.96484375,87.40234375
123.06640625,-16.11328125,36.62109375,56.15234375,64.453125
123.0703125,-11.71875,35.15625,61.5234375,105.46875
123.07421875,23.92578125,37.59765625,64.453125,120.60546875
123.078125,62.5,37.59765625,54.19921875,148.4375
123.08203125,49.31640625,35.15625,56.15234375,168.9453125
123.0859375,55.17578125,35.64453125,59.08203125,161.62109375
123.08984375,92.7734375,38.57421875,43.45703125,150.390625
123.09375,121.58203125,45.8984375,42.48046875,174.31640625
123.09765625,103.515625,74.70703125,45.41015625,171.875
123.1015625,96.19140625,95.703125,38.57421875,146.97265625
123.10546875,120.1171875,89.84375,33.203125,173.33984375
123.109375,117.67578125,86.9140625,24.4140625,186.5234375
123.11328125,124.51171875,85.44921875,22.4609375,156.73828125
123.1171875,126.46484375,80.56640625,22.94921875,143.06640625
123.12109375,118.1640625,80.56640625,20.5078125,127.44140625
123.125,125.9765625,76.66015625,19.04296875,142.08984375
123.12890625,132.32421875,71.2890625,14.16015625,155.76171875
123.1328125,150.390625,68.359375,13.671875,144.04296875
123.13671875,135.7421875,65.91796875,9.765625,135.7421875
123.140625,127.9296875,72.75390625,10.7421875,107.91015625
123.14453125,127.44140625,79.1015625,9.27734375,104.4921875
123.1484375,114.2578125,77.1484375,5.859375,106.93359375
123.15234375,114.2578125,70.80078125,10.25390625,107.421875
123.15625,123.046875,68.359375,13.18359375,133.7890625
123.16015625,142.578125,66.89453125,12.6953125,134.27734375
123.1640625,144.53125,63.4765625,7.8125,106.4453125
123.16796875,122.55859375,61.03515625,4.39453125,106.4453125
123.171875,117.67578125,57.12890625,-0.9765625,119.62890625
123.17578125,119.62890625,51.7578125,-2.44140625,122.0703125
123.1796875,138.18359375,49.31640625,0.48828125,105.95703125
123.18359375,153.80859375,51.26953125,0.48828125,105.95703125
123.1875,123.046875,52.734375,2.9296875,101.07421875
123.19140625,121.09375,47.8515625,0.0,92.7734375
123.1953125,140.625,44.43359375,-4.39453125,90.33203125
123.19921875,143.06640625,42.48046875,-1.953125,88.8671875
123.203125,131.8359375,38.0859375,-2.9296875,105.95703125
123.20703125,118.65234375,38.0859375,-1.46484375,73.2421875
123.2109375,126.46484375,37.59765625,-2.9296875,61.5234375
123.21484375,144.04296875,32.2265625,-10.25390625,78.125
123.21875,119.62890625,25.87890625,-14.16015625,73.2421875
123.22265625,95.703125,26.3671875,-18.5546875,68.84765625
123.2265625,103.02734375,28.3203125,-18.5546875,65.4296875
123.23046875,119.62890625,22.94921875,-12.20703125,30.76171875
123.234375,97.16796875,17.08984375,-10.7421875,36.62109375
123.23828125,57.12890625,8.30078125,-16.11328125,66.89453125
123.2421875,74.21875,3.41796875,-19.53125,53.22265625
123.24609375,85.9375,1.953125,-21.97265625,15.625
123.25,60.546875,-0.9765625,-23.4375,-4.39453125
123.25390625,79.1015625,3.41796875,-22.4609375,13.671875
123.2578125,89.84375,-0.48828125,-25.87890625,29.78515625
123.26171875,107.91015625,-4.39453125,-27.83203125,28.3203125
123.265625,122.0703125,-2.44140625,-27.83203125,25.390625
123.26953125,63.96484375,-6.8359375,-24.4140625,12.6953125
123.2734375,38.57421875,-10.25390625,-23.4375,4.8828125
123.27734375,82.03125,-10.25390625,-24.90234375,8.30078125
123.28125,113.76953125,-12.6953125,-25.87890625,29.78515625
123.28515625,100.09765625,-17.578125,-27.83203125,36.62109375
123.2890625,71.77734375,-18.5546875,-33.203125,0.9765625
123.29296875,62.98828125,-16.6015625,-39.0625,-8.30078125
123.296875,92.7734375,-16.6015625,-33.203125,-2.9296875
123.30078125,78.61328125,-20.01953125,-32.2265625,0.0
123.3046875,55.17578125,-21.484375,-35.15625,0.9765625
123.30859375,67.3828125,-20.99609375,-31.25,17.08984375
123.3125,90.8203125,-20.99609375,-29.78515625,16.6015625
123.31640625,73.73046875,-21.97265625,-28.80859375,6.8359375
123.3203125,45.41015625,-25.390625,-28.3203125,5.859375
123.32421875,75.68359375,-24.90234375,-28.80859375,-8.7890625
123.328125,79.1015625,-21.97265625,-31.25,-2.9296875
123.33203125,57.12890625,-20.99609375,-30.2734375,-4.39453125
123.3359375,56.640625,-19.53125,-28.80859375,1.46484375
123.33984375,41.50390625,-18.5546875,-29.78515625,0.48828125
123.34375,55.17578125,-20.5078125,-28.3203125,0.48828125
123.34765625,80.56640625,-17.578125,-25.87890625,16.6015625
123.3515625,66.40625,-16.6015625,-23.92578125,5.859375
123.35546875,44.43359375,-18.06640625,-26.3671875,-11.23046875
123.359375,47.36328125,-24.4140625,-28.80859375,8.7890625
123.36328125,52.24609375,-30.76171875,-32.71484375,10.7421875
123.3671875,41.50390625,-25.87890625,-33.203125,13.671875
123.37109375,9.27734375,-24.4140625,-32.2265625,-14.16015625
123.375,29.296875,-28.3203125,-34.66796875,-33.69140625
123.37890625,59.08203125,-24.90234375,-32.71484375,-29.296875
123.3828125,37.59765625,-23.4375,-32.2265625,-30.76171875
123.38671875,16.6015625,-29.78515625,-36.62109375,-19.04296875
123.390625,13.18359375,-28.3203125,-38.0859375,-25.87890625
123.39453125,26.3671875,-23.92578125,-36.62109375,-14.6484375
123.3984375,42.48046875,-24.4140625,-34.66796875,0.0
123.40234375,44.43359375,-26.3671875,-30.2734375,-28.80859375
123.40625,13.671875,-27.34375,-35.15625,-34.66796875
123.41015625,11.71875,-30.76171875,-41.9921875,-5.859375
123.4140625,41.015625,-30.2734375,-40.52734375,-19.53125
123.41796875,23.92578125,-30.2734375,-37.109375,-31.25
123.421875,18.06640625,-29.78515625,-34.66796875,-33.69140625
123.42578125,41.50390625,-24.4140625,-30.76171875,-34.1796875
123.4296875,48.828125,-20.5078125,-25.87890625,-23.4375
123.43359375,50.78125,-20.5078125,-19.04296875,-27.83203125
123.4375,65.91796875,-18.06640625,-17.578125,-27.83203125
123.44140625,39.0625,-15.625,-19.04296875,-12.20703125
123.4453125,9.27734375,-18.06640625,-18.5546875,-22.4609375
123.44921875,5.37109375,-18.5546875,-21.484375,-41.50390625
123.453125,-2.9296875,-17.578125,-20.01953125,-22.4609375
123.45703125,-12.6953125,-19.04296875,-19.53125,-1.46484375
123.4609375,8.30078125,-14.6484375,-23.4375,-18.5546875
123.46484375,33.69140625,-14.6484375,-24.4140625,-42.48046875
123.46875,-8.7890625,-21.484375,-24.90234375,-58.59375
123.47265625,-16.6015625,-19.04296875,-18.5546875,-39.55078125
123.4765625,7.32421875,-16.11328125,-13.18359375,-33.203125
123.48046875,4.39453125,-20.01953125,-15.13671875,-44.43359375
123.484375,-2.44140625,-20.01953125,-18.5546875,-47.36328125
123.48828125,-19.04296875,-18.06640625,-19.53125,-42.96875
123.4921875,-20.01953125,-20.5078125,-14.16015625,-19.53125
123.49609375,11.71875,-23.92578125,-22.94921875,-11.71875
123.5,-31.25,-26.85546875,-24.90234375,-56.640625
123.50390625,-66.40625,-23.4375,-14.16015625,-81.0546875
123.5078125,-44.43359375,-15.13671875,-13.671875,-94.23828125
123.51171875,-36.62109375,-16.11328125,-18.06640625,-120.60546875
123.515625,-64.453125,-16.11328125,-20.99609375,-137.6953125
123.51953125,-122.55859375,-17.08984375,-20.99609375,-166.015625
123.5234375,-136.71875,-20.5078125,-23.92578125,-173.828125
123.52734375,-135.25390625,-21.484375,-29.78515625,-166.9921875
123.53125,-137.6953125,-18.06640625,-28.3203125,-184.5703125
123.53515625,-135.7421875,-20.5078125,-28.3203125,-164.0625
123.5390625,-136.23046875,-28.80859375,-37.109375,-184.08203125
123.54296875,-152.34375,-27.34375,-42.96875,-207.03125
123.546875,-156.25,-26.3671875,-40.0390625,-184.5703125
123.55078125,-157.71484375,-27.34375,-46.38671875,-182.6171875
123.5546875,-163.0859375,-25.87890625,-51.7578125,-210.44921875
123.55859375,-156.73828125,-29.296875,-47.8515625,-208.0078125
123.5625,-109.375,-30.76171875,-46.875,-169.43359375
123.56640625,-77.63671875,-27.83203125,-47.36328125,-190.91796875
123.5703125,-144.53125,-27.83203125,-47.36328125,-197.75390625
123.57421875,-169.43359375,-33.203125,-48.33984375,-183.59375
123.578125,-117.67578125,-35.15625,-49.31640625,-191.89453125
123.58203125,-106.93359375,-32.71484375,-49.8046875,-173.33984375
123.5859375,-120.60546875,-35.15625,-53.7109375,-162.59765625
123.58984375,-105.95703125,-33.203125,-49.8046875,-127.44140625
123.59375,-75.68359375,-33.203125,-47.36328125,-116.2109375
123.59765625,-63.96484375,-36.1328125,-50.29296875,-143.5546875
123.6015625,-76.171875,-35.64453125,-52.24609375,-132.32421875
123.60546875,-79.58984375,-36.1328125,-50.78125,-119.140625
123.609375,-59.5703125,-36.62109375,-49.31640625,-116.2109375
123.61328125,-28.80859375,-35.64453125,-47.8515625,-82.03125
123.6171875,-23.92578125,-35.64453125,-45.8984375,-55.6640625
123.62109375,-38.57421875,-37.59765625,-48.828125,-65.91796875
123.625,-28.80859375,-40.0390625,-50.29296875,-63.96484375
123.62890625,-21.97265625,-39.0625,-52.24609375,-82.51953125
123.6328125,-37.59765625,-38.0859375,-52.24609375,-89.35546875
123.63671875,-57.12890625,-40.0390625,-51.7578125,-71.2890625
123.640625,-43.9453125,-37.109375,-47.36328125,-63.4765625
123.64453125,-5.859375,-35.64453125,-48.828125,-74.21875
123.6484375,-7.32421875,-32.71484375,-49.31640625,-65.91796875
123.65234375,-33.69140625,-34.66796875,-47.36328125,-52.24609375
123.65625,-31.73828125,-39.0625,-48.33984375,-44.921875
123.66015625,-9.27734375,-38.0859375,-41.9921875,-25.390625
123.6640625,10.7421875,-35.64453125,-44.921875,-51.7578125
123.66796875,-21.484375,-31.73828125,-52.734375,-74.70703125
123.671875,-52.734375,-33.203125,-53.22265625,-49.31640625
123.67578125,-20.5078125,-32.2265625,-46.38671875,-28.3203125
123.6796875,21.97265625,-31.25,-44.921875,-45.41015625
123.68359375,12.20703125,-35.15625,-45.8984375,-54.19921875
123.6875,-28.80859375,-37.109375,-41.9921875,-38.0859375
123.69140625,-15.13671875,-37.109375,-40.0390625,-24.90234375
123.6953125,23.4375,-32.71484375,-39.0625,-39.55078125
123.69921875,15.625,-31.25,-36.62109375,-25.390625
123.703125,-23.92578125,-33.69140625,-40.0390625,-15.625
123.70703125,-40.0390625,-35.15625,-42.96875,-38.0859375
123.7109375,-12.6953125,-36.1328125,-39.55078125,-40.52734375
123.71484375,-15.625,-37.109375,-35.64453125,-33.203125
123.71875,-19.53125,-35.64453125,-34.66796875,-14.16015625
123.72265625,-17.08984375,-32.71484375,-37.109375,-29.296875
123.7265625,-8.30078125,-34.1796875,-32.71484375,-42.48046875
123.73046875,0.9765625,-37.59765625,-29.78515625,-30.76171875
123.734375,37.109375,-37.59765625,-38.57421875,-20.99609375
123.73828125,24.90234375,-37.59765625,-37.109375,-31.73828125
123.7421875,-46.38671875,-36.1328125,-35.64453125,-43.45703125
123.74609375,-40.52734375,-40.52734375,-41.9921875,-42.48046875
123.75,-30.76171875,-39.0625,-34.1796875,-23.92578125
123.75390625,-44.43359375,-32.2265625,-28.80859375,-14.16015625
123.7578125,-32.2265625,-36.1328125,-31.73828125,-25.390625
123.76171875,4.39453125,-39.0625,-33.69140625,-22.94921875
123.765625,5.37109375,-31.25,-35.15625,-7.8125
123.76953125,-33.69140625,-26.85546875,-33.203125,-9.765625
123.7734375,-43.45703125,-31.73828125,-29.296875,-19.04296875
123.77734375,-13.18359375,-35.64453125,-36.62109375,-24.4140625
123.78125,-16.11328125,-36.1328125,-42.48046875,-27.34375
123.78515625,-12.6953125,-32.71484375,-36.62109375,-21.484375
123.7890625,-30.76171875,-30.2734375,-32.71484375,-28.80859375
123.79296875,-28.3203125,-30.2734375,-35.15625,-38.0859375
123.796875,15.13671875,-32.71484375,-37.109375,-24.90234375
123.80078125,0.9765625,-33.203125,-33.203125,-19.04296875
123.8046875,-35.64453125,-31.73828125,-33.69140625,-45.8984375
123.80859375,-51.26953125,-33.203125,-40.0390625,-48.33984375
123.8125,-26.3671875,-35.15625,-44.43359375,-45.41015625
123.81640625,-10.7421875,-33.69140625,-43.45703125,-56.640625
123.8203125,-12.20703125,-33.203125,-39.55078125,-26.85546875
123.82421875,-0.9765625,-32.71484375,-39.55078125,-33.69140625
123.828125,25.87890625,-34.66796875,-42.48046875,-46.875
123.83203125,10.25390625,-38.57421875,-41.50390625,-41.015625
123.8359375,-46.38671875,-36.62109375,-40.0390625,-55.17578125
123.83984375,-55.6640625,-36.62109375,-40.0390625,-47.8515625
123.84375,-15.625,-35.15625,-37.109375,-44.921875
123.84765625,3.41796875,-28.80859375,-38.0859375,-42.48046875
123.8515625,-13.671875,-35.64453125,-41.50390625,-38.0859375
123.85546875,-40.0390625,-41.015625,-35.64453125,-21.97265625
123.859375,-20.99609375,-36.62109375,-35.64453125,-17.08984375
123.86328125,13.671875,-34.1796875,-41.50390625,-35.15625
123.8671875,-19.53125,-30.76171875,-37.59765625,-39.55078125
123.87109375,-41.9921875,-30.76171875,-36.62109375,-39.0625
123.875,-29.78515625,-32.71484375,-36.1328125,-35.64453125
123.87890625,-19.04296875,-25.390625,-26.85546875,-32.2265625
123.8828125,-3.90625,-23.92578125,-29.296875,-37.109375
123.88671875,-2.44140625,-31.25,-35.64453125,-28.3203125
123.890625,-29.78515625,-31.73828125,-33.203125,-9.765625
123.89453125,-17.578125,-31.25,-36.1328125,-25.390625
123.8984375,24.90234375,-31.73828125,-40.0390625,-51.7578125
123.90234375,-19.04296875,-31.25,-34.66796875,-31.73828125
123.90625,-91.796875,-34.1796875,-34.66796875,-14.16015625
123.91015625,-69.3359375,-33.69140625,-41.015625,-27.34375
123.9140625,-50.29296875,-33.69140625,-40.52734375,-37.59765625
123.91796875,-65.91796875,-36.62109375,-39.55078125,-62.01171875
123.921875,-74.70703125,-38.0859375,-31.73828125,-60.546875
123.92578125,-61.03515625,-35.15625,-24.90234375,-37.109375
123.9296875,-16.6015625,-31.73828125,-28.80859375,-38.57421875
123.93359375,-31.25,-32.2265625,-32.2265625,-45.8984375
123.9375,-80.078125,-34.1796875,-33.203125,-40.0390625
123.94140625,-73.2421875,-35.15625,-35.15625,-35.15625
123.9453125,-41.50390625,-32.71484375,-34.1796875,-43.9453125
123.94921875,-48.33984375,-34.1796875,-33.69140625,-37.59765625
123.953125,-57.6171875,-38.0859375,-38.0859375,-35.64453125
123.95703125,-52.24609375,-37.109375,-40.0390625,-50.29296875
123.9609375,-53.22265625,-35.15625,-38.0859375,-20.99609375
123.96484375,-56.640625,-39.0625,-41.50390625,-50.78125
123.96875,-74.21875,-40.0390625,-45.8984375,-59.08203125
123.97265625,-62.5,-38.57421875,-37.59765625,-27.34375
123.9765625,-34.66796875,-36.1328125,-32.71484375,-46.38671875
123.98046875,-33.203125,-34.66796875,-37.109375,-40.0390625
123.984375,-53.22265625,-36.62109375,-41.9921875,-30.2734375
123.98828125,-68.359375,-36.62109375,-39.55078125,-29.78515625
123.9921875,-47.36328125,-32.2265625,-31.73828125,-53.7109375
123.99609375,-30.2734375,-30.2734375,-33.69140625,-48.828125
124.0,-31.25,-26.3671875,-30.76171875,-31.73828125
124.00390625,-60.05859375,-28.3203125,-27.34375,-1.953125
124.0078125,-64.94140625,-33.203125,-32.71484375,-19.53125
124.01171875,-49.8046875,-32.71484375,-28.3203125,1.46484375
124.015625,-47.8515625,-30.76171875,-27.83203125,-13.18359375
124.01953125,-42.96875,-30.76171875,-32.71484375,-75.68359375
124.0234375,-50.78125,-26.85546875,-28.3203125,-43.45703125
124.02734375,-38.57421875,-24.90234375,-27.83203125,-32.2265625
124.03125,-19.53125,-28.3203125,-27.34375,-28.80859375
124.03515625,-17.08984375,-25.87890625,-27.83203125,-27.34375
124.0390625,-39.55078125,-25.87890625,-31.73828125,-31.25
124.04296875,-52.734375,-28.80859375,-28.3203125,-27.34375
124.046875,-41.50390625,-28.3203125,-28.3203125,-28.3203125
124.05078125,-61.03515625,-29.78515625,-29.78515625,-33.203125
124.0546875,-73.73046875,-30.76171875,-28.3203125,-16.6015625
124.05859375,-46.875,-31.73828125,-30.2734375,-6.34765625
124.0625,-17.08984375,-37.109375,-32.71484375,-16.6015625
124.06640625,-19.04296875,-37.109375,-34.66796875,-26.85546875
124.0703125,-47.36328125,-31.73828125,-33.69140625,-37.109375
124.07421875,-58.10546875,-31.73828125,-28.3203125,-33.69140625
124.078125,-20.01953125,-30.2734375,-28.80859375,-9.765625
124.08203125,-3.41796875,-26.85546875,-30.2734375,-32.71484375
124.0859375,-42.96875,-27.83203125,-30.76171875,-43.9453125
124.08984375,-56.640625,-31.25,-32.2265625,-28.80859375
124.09375,-58.10546875,-31.73828125,-32.2265625,-31.73828125
124.09765625,-40.52734375,-29.78515625,-31.73828125,-24.4140625
124.1015625,-51.7578125,-32.2265625,-31.25,-20.99609375
124.10546875,-62.5,-33.69140625,-33.203125,-20.5078125
124.109375,-15.625,-35.15625,-34.66796875,-37.109375
124.11328125,-40.0390625,-31.73828125,-32.71484375,-28.80859375
124.1171875,-68.359375,-26.85546875,-30.76171875,-26.3671875
124.12109375,-71.77734375,-32.71484375,-37.109375,-64.453125
124.125,-61.5234375,-34.1796875,-35.15625,-42.48046875
124.12890625,-31.73828125,-35.15625,-32.2265625,-40.52734375
124.1328125,-21.97265625,-39.55078125,-35.15625,-44.43359375
124.13671875,-39.55078125,-37.109375,-32.2265625,-15.13671875
124.140625,-41.50390625,-32.71484375,-33.69140625,-34.1796875
124.14453125,-19.04296875,-27.83203125,-32.2265625,-31.25
124.1484375,-21.97265625,-31.73828125,-32.71484375,-26.85546875
124.15234375,-50.29296875,-31.73828125,-33.69140625,-43.45703125
124.15625,-72.265625,-29.78515625,-36.1328125,-45.41015625
124.16015625,-44.43359375,-29.78515625,-41.50390625,-41.9921875
124.1640625,-7.8125,-23.4375,-41.015625,-36.62109375
124.16796875,-35.64453125,-25.390625,-34.66796875,-25.390625
124.171875,-58.10546875,-28.80859375,-33.203125,-27.83203125
124.17578125,-55.6640625,-29.296875,-37.109375,-48.33984375
124.1796875,-32.71484375,-31.73828125,-34.66796875,-59.08203125
124.18359375,-46.875,-31.73828125,-31.73828125,-36.62109375
124.1875,-71.77734375,-26.3671875,-31.25,-16.11328125
124.19140625,-52.734375,-23.92578125,-31.25,-26.3671875
124.1953125,-27.83203125,-22.94921875,-29.78515625,-46.875
124.19921875,-19.53125,-24.4140625,-29.296875,-40.0390625
124.203125,-34.66796875,-28.3203125,-29.78515625,-21.97265625
124.20703125,-23.92578125,-27.34375,-31.73828125,-33.69140625
124.2109375,-1.953125,-26.85546875,-29.296875,-29.296875
124.21484375,-12.20703125,-28.80859375,-25.87890625,-22.4609375
124.21875,-53.22265625,-29.296875,-28.3203125,-25.390625
124.22265625,-46.875,-30.76171875,-29.296875,-10.25390625
124.2265625,-4.39453125,-29.78515625,-27.34375,-10.25390625
124.23046875,-10.7421875,-27.83203125,-28.3203125,-17.08984375
124.234375,-45.41015625,-28.3203125,-31.25,-32.2265625
124.23828125,-63.96484375,-29.78515625,-35.15625,-52.24609375
124.2421875,-46.875,-31.73828125,-34.1796875,-40.0390625
124.24609375,-14.16015625,-32.2265625,-32.71484375,-3.90625
124.25,-15.13671875,-35.64453125,-38.57421875,-25.87890625
124.25390625,-40.52734375,-33.69140625,-34.66796875,-51.26953125
124.2578125,-41.015625,-26.85546875,-29.296875,-29.296875
124.26171875,-4.39453125,-23.92578125,-30.76171875,-19.04296875
124.265625,-4.8828125,-27.34375,-30.2734375,-14.6484375
124.26953125,-20.99609375,-31.25,-29.78515625,-36.1328125
124.2734375,-15.13671875,-26.3671875,-26.85546875,-33.203125
124.27734375,-3.41796875,-20.99609375,-27.34375,-35.64453125
124.28125,3.90625,-23.92578125,-29.78515625,-29.296875
124.28515625,-26.3671875,-29.296875,-35.15625,-24.90234375
124.2890625,-36.1328125,-33.69140625,-38.57421875,-56.640625
124.29296875,-9.765625,-36.1328125,-37.59765625,-40.0390625
124.296875,-18.06640625,-32.71484375,-33.203125,-18.5546875
124.30078125,-40.52734375,-32.2265625,-36.62109375,-52.24609375
124.3046875,-54.6875,-31.25,-43.45703125,-59.5703125
124.30859375,-23.92578125,-28.80859375,-38.0859375,-54.6875
124.3125,-0.48828125,-30.76171875,-38.0859375,-66.89453125
124.31640625,-18.5546875,-30.2734375,-44.921875,-52.734375
124.3203125,-35.64453125,-31.25,-42.48046875,-37.109375
124.32421875,-43.45703125,-30.76171875,-39.55078125,-64.94140625
124.328125,-6.8359375,-27.83203125,-42.96875,-74.21875
124.33203125,-0.48828125,-22.94921875,-38.0859375,-36.1328125
124.3359375,-15.625,-20.01953125,-32.71484375,-52.734375
124.33984375,-16.6015625,-25.87890625,-36.62109375,-71.2890625
124.34375,-27.83203125,-24.4140625,-33.203125,-49.31640625
124.34765625,-26.3671875,-20.5078125,-35.15625,-51.26953125
124.3515625,-39.55078125,-22.4609375,-37.59765625,-50.29296875
124.35546875,-28.3203125,-24.4140625,-36.62109375,-55.6640625
124.359375,-4.39453125,-28.3203125,-37.59765625,-83.0078125
124.36328125,-33.69140625,-30.76171875,-43.45703125,-70.80078125
124.3671875,-40.0390625,-28.3203125,-41.9921875,-61.03515625
124.37109375,-4.8828125,-26.85546875,-35.15625,-78.125
124.375,-1.46484375,-27.83203125,-40.52734375,-68.84765625
124.37890625,13.18359375,-24.4140625,-43.45703125,-72.75390625
124.3828125,-5.37109375,-28.80859375,-44.43359375,-72.265625
124.38671875,-55.6640625,-34.1796875,-48.33984375,-60.546875
124.390625,-45.41015625,-27.34375,-41.015625,-61.03515625
124.39453125,-7.32421875,-19.04296875,-30.2734375,-49.8046875
124.3984375,-14.6484375,-18.5546875,-29.296875,-27.34375
124.40234375,-27.34375,-23.92578125,-32.2265625,-53.7109375
124.40625,-27.83203125,-20.99609375,-28.3203125,-52.24609375
124.41015625,3.41796875,-19.04296875,-26.3671875,-13.18359375
124.4140625,-6.8359375,-24.4140625,-31.73828125,-34.1796875
124.41796875,-35.64453125,-26.3671875,-33.203125,-40.0390625
124.421875,-49.8046875,-23.4375,-33.69140625,-12.20703125
124.42578125,-51.26953125,-22.4609375,-33.69140625,-48.33984375
124.4296875,-37.109375,-24.90234375,-31.25,-65.91796875
124.43359375,-66.40625,-26.85546875,-37.109375,-31.73828125
124.4375,-65.91796875,-24.90234375,-39.0625,-37.59765625
124.44140625,-49.31640625,-23.4375,-34.1796875,-47.36328125
124.4453125,-51.7578125,-23.4375,-37.59765625,-42.96875
124.44921875,-56.15234375,-22.4609375,-32.2265625,-33.69140625
124.453125,-54.19921875,-22.94921875,-26.85546875,-38.57421875
124.45703125,-53.22265625,-26.85546875,-28.80859375,-46.38671875
124.4609375,-23.92578125,-25.87890625,-24.90234375,-35.15625
124.46484375,-48.33984375,-26.3671875,-22.94921875,-11.71875
124.46875,-80.078125,-24.4140625,-26.3671875,-42.48046875
124.47265625,-70.80078125,-24.4140625,-27.83203125,-83.49609375
124.4765625,-33.69140625,-29.78515625,-27.83203125,-62.98828125
124.48046875,-25.390625,-27.83203125,-28.3203125,-32.71484375
124.484375,-95.21484375,-25.87890625,-26.3671875,-19.53125
124.48828125,-104.00390625,-28.3203125,-24.90234375,-35.15625
124.4921875,-44.43359375,-26.85546875,-24.4140625,-36.1328125
124.49609375,-31.25,-28.3203125,-19.04296875,-54.6875
124.5,-44.921875,-31.73828125,-18.06640625,-57.6171875
124.50390625,-83.0078125,-32.2265625,-20.5078125,-28.80859375
124.5078125,-96.6796875,-32.2265625,-21.484375,-34.1796875
124.51171875,-67.3828125,-33.69140625,-23.92578125,-31.73828125
124.515625,-56.15234375,-35.15625,-27.34375,-12.6953125
124.51953125,-73.2421875,-38.57421875,-35.15625,-0.48828125
124.5234375,-107.421875,-38.0859375,-30.2734375,-51.26953125
124.52734375,-105.46875,-40.0390625,-36.1328125,-90.33203125
124.53125,-105.46875,-44.921875,-41.9921875,-59.08203125
124.53515625,-121.09375,-44.921875,-40.52734375,-44.921875
124.5390625,-113.76953125,-45.41015625,-49.8046875,-80.078125
124.54296875,-137.6953125,-45.8984375,-50.78125,-116.2109375
124.546875,-128.41796875,-42.48046875,-55.17578125,-112.3046875
124.55078125,-118.1640625,-41.50390625,-55.6640625,-130.37109375
124.5546875,-162.59765625,-40.0390625,-57.12890625,-130.859375
124.55859375,-135.25390625,-39.0625,-57.12890625,-146.484375
124.5625,-143.06640625,-42.48046875,-50.78125,-164.0625
124.56640625,-169.921875,-41.50390625,-51.7578125,-153.3203125
124.5703125,-174.31640625,-42.96875,-52.24609375,-147.4609375
124.57421875,-187.5,-46.38671875,-53.7109375,-193.84765625
124.578125,-157.2265625,-47.8515625,-47.8515625,-176.26953125
124.58203125,-161.1328125,-52.24609375,-39.55078125,-132.32421875
124.5859375,-184.08203125,-53.7109375,-43.45703125,-170.41015625
124.58984375,-185.05859375,-55.6640625,-58.10546875,-170.41015625
124.59375,-169.921875,-56.15234375,-52.734375,-156.25
124.59765625,-129.8828125,-50.29296875,-45.41015625,-148.92578125
124.6015625,-113.76953125,-50.29296875,-39.0625,-83.984375
124.60546875,-158.203125,-57.12890625,-34.66796875,-63.96484375
124.609375,-120.1171875,-56.15234375,-40.52734375,-98.6328125
124.61328125,-81.54296875,-50.29296875,-40.0390625,-92.28515625
124.6171875,-77.1484375,-52.734375,-39.0625,-77.63671875
124.62109375,-85.9375,-54.19921875,-37.59765625,-62.5
124.625,-80.56640625,-48.33984375,-38.57421875,-72.75390625
124.62890625,-46.38671875,-47.36328125,-35.64453125,-71.2890625
124.6328125,-114.2578125,-48.33984375,-28.3203125,-64.94140625
124.63671875,-148.4375,-45.41015625,-31.25,-62.5
124.640625,-94.23828125,-38.57421875,-20.01953125,-15.13671875
124.64453125,-22.4609375,-28.3203125,-9.27734375,-11.71875
124.6484375,-33.69140625,-26.85546875,-9.27734375,6.34765625
124.65234375,-93.26171875,-27.83203125,-15.13671875,39.55078125
124.65625,-85.9375,-25.87890625,-23.92578125,1.46484375
124.66015625,-49.8046875,-31.25,-20.01953125,-35.64453125
124.6640625,-59.5703125,-45.8984375,-18.06640625,-36.1328125
124.66796875,-86.42578125,-53.7109375,-17.08984375,-24.4140625
124.671875,-84.9609375,-62.98828125,-14.16015625,-6.8359375
124.67578125,-61.03515625,-71.2890625,-15.13671875,7.32421875
124.6796875,-26.85546875,-74.70703125,-23.4375,8.7890625
124.68359375,-39.55078125,-81.0546875,-25.390625,23.92578125
124.6875,-102.05078125,-84.47265625,-23.92578125,7.32421875
124.69140625,-104.98046875,-84.9609375,-32.2265625,-13.18359375
124.6953125,-49.8046875,-83.49609375,-28.80859375,-8.30078125
124.69921875,-35.64453125,-84.9609375,-17.08984375,40.52734375
124.703125,-53.22265625,-82.03125,-17.08984375,38.57421875
124.70703125,-26.85546875,-75.68359375,-26.85546875,-26.85546875
124.7109375,-41.015625,-74.21875,-32.71484375,-41.9921875
124.71484375,-56.640625,-68.84765625,-30.76171875,-10.25390625
124.71875,-39.0625,-62.5,-27.34375,20.99609375
124.72265625,-52.734375,-65.4296875,-28.3203125,26.3671875
124.7265625,-34.66796875,-64.453125,-29.78515625,22.94921875
124.73046875,-42.48046875,-64.94140625,-28.3203125,-1.953125
124.734375,-82.51953125,-63.4765625,-31.25,-37.109375
124.73828125,-82.03125,-62.01171875,-27.34375,12.20703125
124.7421875,-78.61328125,-58.59375,-30.76171875,18.06640625
124.74609375,-76.66015625,-53.7109375,-36.62109375,-38.0859375
124.75,-46.38671875,-50.29296875,-32.71484375,-44.43359375
124.75390625,-61.03515625,-43.45703125,-30.76171875,-22.94921875
124.7578125,-77.63671875,-41.9921875,-37.59765625,-0.9765625
124.76171875,-72.265625,-41.9921875,-39.55078125,-23.4375
124.765625,-54.19921875,-37.109375,-37.59765625,-22.94921875
124.76953125,-31.73828125,-31.25,-37.109375,6.34765625
124.7734375,-54.19921875,-29.296875,-36.1328125,16.11328125
124.77734375,-62.5,-24.90234375,-38.0859375,-1.953125
124.78125,-35.15625,-16.11328125,-31.73828125,-8.7890625
124.78515625,-26.85546875,-15.13671875,-29.296875,-14.16015625
124.7890625,-22.4609375,-20.99609375,-37.59765625,-21.484375
124.79296875,-26.3671875,-16.6015625,-42.48046875,-6.34765625
124.796875,-20.01953125,-14.6484375,-41.015625,-5.37109375
124.80078125,-63.4765625,-19.04296875,-35.64453125,14.6484375
124.8046875,-80.078125,-19.04296875,-29.78515625,40.52734375
124.80859375,-45.41015625,-22.94921875,-35.15625,-44.921875
124.8125,-31.25,-24.4140625,-34.66796875,-68.84765625
124.81640625,-32.71484375,-22.94921875,-29.296875,9.27734375
124.8203125,-40.52734375,-26.85546875,-38.57421875,8.30078125
124.82421875,-59.5703125,-33.203125,-45.8984375,-41.9921875
124.828125,-73.2421875,-36.1328125,-39.55078125,-19.53125
124.83203125,-61.5234375,-36.62109375,-35.15625,-27.83203125
124.8359375,-68.84765625,-32.71484375,-34.1796875,-14.16015625
124.83984375,-59.5703125,-30.2734375,-38.57421875,-17.08984375
124.84375,-33.69140625,-29.78515625,-41.015625,-45.41015625
124.84765625,-10.7421875,-28.80859375,-40.52734375,-41.50390625
124.8515625,-30.2734375,-32.2265625,-39.0625,-24.4140625
124.85546875,-60.546875,-35.64453125,-41.015625,-19.53125
124.859375,-57.6171875,-40.0390625,-47.36328125,-30.2734375
124.86328125,-45.8984375,-41.50390625,-45.41015625,-25.390625
124.8671875,-54.19921875,-41.015625,-40.0390625,-33.69140625
124.87109375,-47.8515625,-41.9921875,-38.0859375,-43.45703125
124.875,-51.26953125,-41.015625,-45.41015625,-27.83203125
124.87890625,-49.31640625,-38.0859375,-45.8984375,-14.16015625
124.8828125,-56.640625,-41.50390625,-42.48046875,-55.6640625
124.88671875,-53.7109375,-44.921875,-47.36328125,-52.24609375
124.890625,-22.94921875,-43.9453125,-45.41015625,-50.29296875
124.89453125,-52.734375,-42.48046875,-39.0625,-43.9453125
124.8984375,-55.17578125,-45.41015625,-43.45703125,-35.15625
124.90234375,-76.171875,-49.8046875,-49.31640625,-30.2734375
124.90625,-66.40625,-45.41015625,-41.50390625,-36.62109375
124.91015625,-42.48046875,-43.45703125,-33.69140625,-51.7578125
124.9140625,-46.875,-42.96875,-37.109375,-29.296875
124.91796875,-60.546875,-42.96875,-43.9453125,-38.0859375
124.921875,-77.1484375,-44.43359375,-41.015625,-59.5703125
124.92578125,-44.43359375,-44.43359375,-38.57421875,-51.26953125
124.9296875,-66.40625,-42.96875,-41.9921875,-61.5234375
124.93359375,-85.44921875,-41.50390625,-41.50390625,-53.7109375
124.9375,-91.796875,-40.0390625,-36.1328125,-36.62109375
124.94140625,-87.890625,-42.48046875,-35.15625,-18.06640625
124.9453125,-31.25,-41.015625,-40.52734375,-56.15234375
124.94921875,-33.203125,-45.8984375,-43.9453125,-78.125
124.953125,-63.4765625,-47.8515625,-48.33984375,-72.265625
124.95703125,-75.68359375,-41.9921875,-52.734375,-48.33984375
124.9609375,-65.91796875,-41.9921875,-48.828125,-27.34375
124.96484375,-72.75390625,-44.43359375,-38.57421875,-48.828125
124.96875,-101.5625,-44.921875,-29.296875,-58.59375
124.97265625,-115.234375,-45.41015625,-29.296875,-38.57421875
124.9765625,-89.84375,-43.9453125,-23.92578125,-41.015625
124.98046875,-71.2890625,-42.48046875,-19.53125,-71.77734375
124.984375,-98.14453125,-46.875,-20.5078125,-52.24609375
124.98828125,-119.140625,-48.33984375,-13.671875,-41.9921875
124.9921875,-101.07421875,-42.96875,-9.27734375,-28.3203125
124.99609375,-66.89453125,-47.36328125,-17.08984375,-20.01953125
125.0,-61.5234375,-56.15234375,-19.04296875,-32.71484375
125.00390625,-92.28515625,-53.7109375,-20.5078125,-45.8984375
125.0078125,-89.84375,-44.921875,-25.87890625,-48.828125
125.01171875,-50.29296875,-45.41015625,-26.85546875,-32.2265625
125.015625,-49.8046875,-47.8515625,-28.3203125,-16.6015625
125.01953125,-66.40625,-49.8046875,-25.390625,-22.4609375
125.0234375,-75.1953125,-50.29296875,-19.53125,-28.3203125
125.02734375,-68.84765625,-50.78125,-21.484375,-22.94921875
125.03125,-52.24609375,-51.7578125,-25.87890625,-20.99609375
125.03515625,-75.1953125,-54.19921875,-29.78515625,-20.99609375
125.0390625,-81.0546875,-54.19921875,-37.59765625,-21.97265625
125.04296875,-50.78125,-53.22265625,-34.1796875,-14.6484375
125.046875,-30.76171875,-52.734375,-31.73828125,-22.4609375
125.05078125,-39.0625,-54.19921875,-34.66796875,-14.6484375
125.0546875,-48.828125,-51.26953125,-29.78515625,-22.94921875
125.05859375,-46.875,-52.24609375,-32.2265625,-26.85546875
125.0625,-37.59765625,-57.6171875,-38.57421875,-33.203125
125.06640625,-51.7578125,-49.31640625,-36.62109375,-55.17578125
125.0703125,-65.91796875,-51.26953125,-33.203125,-46.38671875
125.07421875,-57.12890625,-55.6640625,-33.69140625,-45.8984375
125.078125,-38.57421875,-53.22265625,-38.57421875,-52.734375
125.08203125,-40.52734375,-53.22265625,-41.50390625,-38.57421875
125.0859375,-75.68359375,-58.10546875,-41.50390625,-39.55078125
125.08984375,-77.63671875,-58.10546875,-40.0390625,-51.7578125
125.09375,-45.8984375,-56.15234375,-41.9921875,-43.9453125
125.09765625,-28.3203125,-57.12890625,-38.57421875,-32.2265625
125.1015625,-47.36328125,-49.8046875,-35.64453125,-26.85546875
125.10546875,-65.91796875,-43.45703125,-32.71484375,-21.97265625
125.109375,-56.640625,-43.45703125,-29.78515625,-35.15625
125.11328125,-26.85546875,-43.45703125,-35.64453125,-28.3203125
125.1171875,-15.13671875,-41.50390625,-42.48046875,-25.87890625
125.12109375,-47.36328125,-40.0390625,-41.50390625,-42.48046875
125.125,-55.6640625,-41.9921875,-41.015625,-46.38671875
125.12890625,-26.85546875,-43.9453125,-52.734375,-34.1796875
125.1328125,-8.7890625,-46.38671875,-59.08203125,-30.2734375
125.13671875,-17.08984375,-44.43359375,-59.5703125,-32.2265625
125.140625,-7.32421875,-40.0390625,-66.40625,-32.2265625
125.14453125,9.765625,-39.55078125,-69.82421875,-34.1796875
125.1484375,13.18359375,-39.0625,-74.21875,-32.2265625
125.15234375,5.859375,-36.1328125,-72.265625,-38.0859375
125.15625,-11.71875,-40.0390625,-74.21875,-55.6640625
125.16015625,8.30078125,-38.57421875,-79.58984375,-54.19921875
125.1640625,24.4140625,-36.1328125,-83.49609375,-59.08203125
125.16796875,20.01953125,-37.109375,-88.37890625,-55.6640625
125.171875,0.48828125,-28.80859375,-85.9375,-57.6171875
125.17578125,-2.9296875,-25.87890625,-80.078125,-58.59375
125.1796875,41.50390625,-28.80859375,-74.70703125,-47.8515625
125.18359375,56.15234375,-27.83203125,-81.0546875,-23.4375
125.1875,7.32421875,-23.92578125,-80.56640625,-36.1328125
125.19140625,0.9765625,-22.94921875,-82.51953125,-61.03515625
125.1953125,31.25,-21.97265625,-84.9609375,-60.05859375
125.19921875,38.0859375,-15.625,-82.03125,-58.10546875
125.203125,26.85546875,-19.04296875,-82.51953125,-33.203125
125.20703125,31.25,-23.92578125,-83.0078125,-32.71484375
125.2109375,62.5,-19.53125,-84.9609375,-44.43359375
125.21484375,59.08203125,-15.625,-83.984375,-65.4296875
125.21875,49.31640625,-19.53125,-82.03125,-76.66015625
125.22265625,30.76171875,-22.94921875,-77.63671875,-50.78125
125.2265625,28.80859375,-26.85546875,-78.125,-40.0390625
125.23046875,52.734375,-31.25,-78.61328125,-53.7109375
125.234375,31.25,-27.83203125,-67.87109375,-55.17578125
125.23828125,22.4609375,-25.87890625,-62.5,-33.69140625
125.2421875,40.52734375,-33.69140625,-68.84765625,-17.578125
125.24609375,58.59375,-35.15625,-72.75390625,-37.59765625
125.25,57.6171875,-32.2265625,-67.87109375,-35.15625
125.25390625,35.15625,-31.25,-61.5234375,-31.73828125
125.2578125,48.33984375,-31.73828125,-61.03515625,-56.640625
125.26171875,78.61328125,-31.73828125,-62.5,-22.4609375
125.265625,74.21875,-31.73828125,-61.03515625,7.8125
125.26953125,45.41015625,-31.73828125,-62.98828125,-55.6640625
125.2734375,54.19921875,-24.90234375,-64.94140625,-75.68359375
125.27734375,74.70703125,-27.34375,-62.5,-42.96875
125.28125,59.5703125,-38.0859375,-60.05859375,-29.296875
125.28515625,44.921875,-37.109375,-60.546875,-69.3359375
125.2890625,39.55078125,-33.203125,-62.01171875,-53.7109375
125.29296875,32.2265625,-34.66796875,-57.6171875,-12.6953125
125.296875,22.94921875,-36.1328125,-56.15234375,-33.203125
125.30078125,8.7890625,-35.15625,-58.10546875,-47.36328125
125.3046875,-9.27734375,-35.64453125,-55.17578125,-54.19921875
125.30859375,-2.9296875,-39.55078125,-52.24609375,-46.875
125.3125,25.87890625,-41.50390625,-51.26953125,-33.69140625
125.31640625,26.85546875,-37.109375,-52.734375,-34.1796875
125.3203125,3.41796875,-31.25,-49.8046875,-32.2265625
125.32421875,4.8828125,-32.71484375,-46.38671875,-29.78515625
125.328125,19.04296875,-32.71484375,-47.8515625,-35.15625
125.33203125,1.953125,-31.25,-40.0390625,-41.50390625
125.3359375,-3.90625,-29.78515625,-38.0859375,-5.37109375
125.33984375,0.48828125,-30.76171875,-48.33984375,-12.20703125
125.34375,2.9296875,-35.15625,-52.734375,-69.82421875
125.34765625,-7.32421875,-37.109375,-50.29296875,-41.9921875
125.3515625,-18.5546875,-39.0625,-51.7578125,-44.921875
125.35546875,-25.390625,-41.9921875,-56.15234375,-64.453125
125.359375,-18.06640625,-40.0390625,-56.640625,-55.17578125
125.36328125,1.953125,-34.1796875,-49.31640625,-49.8046875
125.3671875,-2.44140625,-33.69140625,-47.36328125,-37.109375
125.37109375,-7.8125,-40.0390625,-50.78125,-30.76171875
125.375,-7.32421875,-46.38671875,-57.6171875,-43.9453125
125.37890625,-4.8828125,-50.29296875,-57.12890625,-64.94140625
125.3828125,1.46484375,-49.8046875,-51.7578125,-63.4765625
125.38671875,-35.15625,-49.31640625,-56.15234375,-56.640625
125.390625,-32.71484375,-45.8984375,-55.6640625,-60.546875
125.39453125,0.48828125,-43.9453125,-50.29296875,-39.0625
125.3984375,-5.37109375,-41.50390625,-45.8984375,-2.9296875
125.40234375,-22.94921875,-43.45703125,-51.7578125,-25.390625
125.40625,-28.3203125,-42.96875,-57.6171875,-52.734375
125.41015625,-13.18359375,-41.9921875,-55.6640625,-44.43359375
125.4140625,-12.6953125,-42.48046875,-59.08203125,-47.36328125
125.41796875,-22.94921875,-44.921875,-68.359375,-57.12890625
125.421875,-50.29296875,-46.38671875,-64.94140625,-60.05859375
125.42578125,-46.38671875,-42.96875,-66.40625,-65.91796875
125.4296875,-11.71875,-41.50390625,-85.9375,-58.59375
125.43359375,-27.34375,-45.41015625,-76.171875,-38.57421875
125.4375,-77.63671875,-46.38671875,-56.15234375,-62.98828125
125.44140625,-91.796875,-41.015625,-57.12890625,-87.40234375
125.4453125,-95.703125,-38.57421875,-50.29296875,-60.05859375
125.44921875,-113.76953125,-38.0859375,-46.38671875,-65.4296875
125.453125,-115.72265625,-35.15625,-47.36328125,-103.02734375
125.45703125,-138.671875,-33.69140625,-39.0625,-114.2578125
125.4609375,-151.3671875,-35.15625,-29.296875,-119.140625
125.46484375,-148.4375,-36.1328125,-22.4609375,-103.02734375
125.46875,-169.43359375,-40.0390625,-20.99609375,-102.05078125
125.47265625,-173.828125,-36.62109375,-16.6015625,-108.3984375
125.4765625,-149.4140625,-33.69140625,-10.25390625,-90.8203125
125.48046875,-117.67578125,-38.0859375,-14.16015625,-66.89453125
125.484375,-131.8359375,-42.96875,-9.765625,-71.77734375
125.48828125,-159.66796875,-47.36328125,-3.41796875,-78.61328125
125.4921875,-127.44140625,-48.33984375,0.48828125,-59.5703125
125.49609375,-98.14453125,-44.921875,6.34765625,-46.875
125.5,-108.3984375,-49.31640625,3.41796875,-46.38671875
125.50390625,-105.46875,-48.828125,10.25390625,-27.83203125
125.5078125,-108.88671875,-43.45703125,18.5546875,-27.34375
125.51171875,-71.2890625,-48.33984375,16.11328125,-31.73828125
125.515625,-37.109375,-47.8515625,19.04296875,6.34765625
125.51953125,-74.21875,-45.41015625,21.97265625,-0.48828125
125.5234375,-83.0078125,-42.96875,22.4609375,9.27734375
125.52734375,-64.453125,-44.43359375,19.53125,18.06640625
125.53125,-69.3359375,-48.828125,18.06640625,1.953125
125.53515625,-68.84765625,-50.29296875,14.16015625,2.44140625
125.5390625,-75.1953125,-51.26953125,10.25390625,4.8828125
125.54296875,-38.0859375,-50.78125,5.859375,18.06640625
125.546875,-14.16015625,-47.8515625,2.9296875,27.83203125
125.55078125,-37.59765625,-44.43359375,1.46484375,22.4609375
125.5546875,-45.41015625,-49.8046875,-4.8828125,13.18359375
125.55859375,-30.2734375,-52.734375,-9.765625,15.13671875
125.5625,-7.8125,-47.8515625,-6.8359375,5.859375
125.56640625,-9.765625,-47.36328125,-7.8125,20.99609375
125.5703125,-6.8359375,-49.31640625,-10.7421875,20.99609375
125.57421875,-3.41796875,-48.828125,-6.34765625,10.7421875
125.578125,13.671875,-48.828125,-7.8125,11.71875
125.58203125,11.23046875,-51.7578125,-13.18359375,28.80859375
125.5859375,-22.4609375,-52.24609375,-10.7421875,48.33984375
125.58984375,-17.08984375,-48.828125,-15.13671875,28.80859375
125.59375,3.90625,-47.36328125,-18.06640625,-9.27734375
125.59765625,-8.7890625,-49.31640625,-14.6484375,-7.8125
125.6015625,-27.83203125,-55.6640625,-25.390625,5.37109375
125.60546875,-21.484375,-75.68359375,-28.3203125,-5.859375
125.609375,2.44140625,-103.02734375,-25.390625,14.6484375
125.61328125,37.109375,-122.0703125,-22.4609375,15.625
125.6171875,9.765625,-128.90625,-20.01953125,16.6015625
125.62109375,-24.90234375,-133.7890625,-20.01953125,17.08984375
125.625,13.671875,-137.6953125,-20.01953125,-0.9765625
125.62890625,42.96875,-135.7421875,-24.4140625,3.90625
125.6328125,20.01953125,-136.71875,-27.34375,12.6953125
125.63671875,-2.44140625,-137.6953125,-27.34375,10.25390625
125.640625,-6.34765625,-137.20703125,-30.2734375,14.6484375
125.64453125,-4.39453125,-134.27734375,-29.78515625,13.671875
125.6484375,18.06640625,-128.90625,-27.34375,10.7421875
125.65234375,8.30078125,-127.44140625,-26.85546875,13.18359375
125.65625,-13.18359375,-126.953125,-34.66796875,-3.41796875
125.66015625,-1.46484375,-124.0234375,-41.015625,-6.34765625
125.6640625,26.3671875,-117.67578125,-34.1796875,-9.27734375
125.66796875,2.9296875,-116.69921875,-33.69140625,-27.34375
125.671875,-15.13671875,-117.1875,-34.66796875,-18.5546875
125.67578125,-6.34765625,-113.76953125,-34.66796875,1.953125
125.6796875,-11.71875,-112.79296875,-33.69140625,-20.99609375
125.68359375,0.0,-112.79296875,-39.55078125,-20.5078125
125.6875,14.16015625,-109.86328125,-45.8984375,14.16015625
125.69140625,12.20703125,-105.46875,-36.62109375,-4.39453125
125.6953125,-3.41796875,-102.05078125,-25.87890625,-41.9921875
125.69921875,-38.0859375,-104.4921875,-27.83203125,-47.36328125
125.703125,-58.59375,-107.91015625,-34.1796875,-46.875
125.70703125,-57.12890625,-102.5390625,-31.73828125,-54.19921875
125.7109375,-56.15234375,-98.6328125,-29.78515625,-65.91796875
125.71484375,-53.7109375,-104.98046875,-31.25,-69.82421875
125.71875,-66.40625,-107.91015625,-34.1796875,-65.4296875
125.72265625,-62.5,-103.02734375,-37.59765625,-59.08203125
125.7265625,-34.66796875,-111.81640625,-34.66796875,-13.671875
125.73046875,-30.76171875,-124.51171875,-34.1796875,-19.04296875
125.734375,-43.9453125,-129.39453125,-35.15625,-48.828125
125.73828125,-36.1328125,-131.34765625,-35.64453125,-47.36328125
125.7421875,-29.296875,-135.25390625,-39.55078125,-58.10546875
125.74609375,-17.08984375,-138.18359375,-42.48046875,-58.10546875
125.75,1.46484375,-138.18359375,-43.9453125,-49.8046875
125.75390625,-5.859375,-135.7421875,-38.57421875,-38.57421875
125.7578125,-15.625,-130.859375,-36.1328125,-41.50390625
125.76171875,4.39453125,-129.8828125,-33.69140625,-6.8359375
125.765625,-7.32421875,-128.41796875,-34.1796875,-13.18359375
125.76953125,-63.4765625,-125.0,-39.0625,-65.4296875
125.7734375,-50.29296875,-122.0703125,-40.0390625,-44.43359375
125.77734375,-30.76171875,-119.140625,-37.109375,-24.4140625
125.78125,-31.25,-119.140625,-38.0859375,-32.71484375
125.78515625,-44.921875,-115.72265625,-41.015625,-38.0859375
125.7890625,-52.24609375,-113.76953125,-41.50390625,-28.3203125
125.79296875,-30.76171875,-114.2578125,-38.0859375,-37.59765625
125.796875,-25.87890625,-110.83984375,-37.109375,-69.3359375
125.80078125,-57.6171875,-113.28125,-38.0859375,-28.3203125
125.8046875,-44.921875,-115.234375,-35.15625,-12.6953125
125.80859375,-25.390625,-112.79296875,-40.52734375,-62.01171875
125.8125,-14.16015625,-114.74609375,-48.828125,-63.4765625
125.81640625,-27.83203125,-114.74609375,-40.0390625,-57.12890625
125.8203125,-65.91796875,-111.328125,-33.69140625,-61.03515625
125.82421875,-53.22265625,-108.88671875,-37.59765625,-43.9453125
125.828125,-21.484375,-103.02734375,-35.15625,-33.203125
125.83203125,-12.20703125,-105.95703125,-37.109375,-51.7578125
125.8359375,-25.87890625,-112.3046875,-37.109375,-50.29296875
125.83984375,-37.59765625,-114.74609375,-41.9921875,-41.50390625
125.84375,-45.8984375,-117.67578125,-43.45703125,-37.59765625
125.84765625,-49.31640625,-112.79296875,-43.45703125,-26.3671875
125.8515625,-48.828125,-108.3984375,-46.38671875,-29.78515625
125.85546875,-61.03515625,-108.88671875,-46.38671875,-47.8515625
125.859375,-44.43359375,-107.421875,-47.8515625,-59.08203125
125.86328125,-26.3671875,-102.05078125,-41.9921875,-57.12890625
125.8671875,-28.80859375,-99.12109375,-35.64453125,-44.921875
125.87109375,-45.8984375,-101.5625,-41.50390625,-43.9453125
125.875,-74.70703125,-100.09765625,-42.96875,-41.9921875
125.87890625,-64.94140625,-100.5859375,-41.015625,-50.78125
125.8828125,-56.640625,-104.4921875,-47.36328125,-36.1328125
125.88671875,-41.9921875,-111.81640625,-43.9453125,-25.390625
125.890625,-27.83203125,-119.62890625,-41.015625,-49.31640625
125.89453125,-67.3828125,-116.2109375,-40.52734375,-49.31640625
125.8984375,-82.51953125,-112.79296875,-37.59765625,-57.12890625
125.90234375,-66.40625,-111.328125,-34.1796875,-53.22265625
125.90625,-82.03125,-111.328125,-34.66796875,-40.52734375
125.91015625,-69.3359375,-115.234375,-37.59765625,-34.1796875
125.9140625,-49.31640625,-119.62890625,-38.0859375,-45.8984375
125.91796875,-80.56640625,-123.53515625,-37.109375,-45.8984375
125.921875,-79.1015625,-116.69921875,-33.203125,-31.73828125
125.92578125,-62.5,-111.81640625,-31.73828125,-42.96875
125.9296875,-79.1015625,-109.86328125,-26.85546875,-56.15234375
125.93359375,-48.828125,-109.375,-26.3671875,-47.36328125
125.9375,-75.68359375,-106.4453125,-32.71484375,-43.45703125
125.94140625,-90.8203125,-99.609375,-32.2265625,-41.015625
125.9453125,-50.78125,-99.609375,-24.90234375,-32.71484375
125.94921875,-71.2890625,-95.21484375,-23.4375,-45.8984375
125.953125,-91.30859375,-93.26171875,-29.78515625,-31.25
125.95703125,-92.28515625,-93.75,-30.76171875,-44.43359375
125.9609375,-80.078125,-92.28515625,-34.66796875,-63.4765625
125.96484375,-69.82421875,-89.84375,-33.203125,-43.45703125
125.96875,-89.84375,-88.8671875,-27.83203125,-37.59765625
125.97265625,-89.35546875,-86.42578125,-31.73828125,-27.83203125
125.9765625,-77.1484375,-87.890625,-39.55078125,-39.55078125
125.98046875,-55.6640625,-89.84375,-40.0390625,-45.41015625
125.984375,-53.7109375,-85.9375,-33.203125,-29.78515625
125.98828125,-95.21484375,-85.9375,-38.57421875,-32.2265625
125.9921875,-83.984375,-79.1015625,-41.50390625,-37.59765625
125.99609375,-62.98828125,-77.63671875,-37.59765625,-32.71484375
126.0,-75.68359375,-75.1953125,-37.109375,-14.16015625
126.00390625,-90.33203125,-75.68359375,-39.55078125,-20.01953125
126.0078125,-64.453125,-77.1484375,-42.48046875,-42.48046875
126.01171875,-58.59375,-70.80078125,-45.41015625,-42.96875
126.015625,-76.66015625,-66.40625,-44.43359375,-41.015625
126.01953125,-87.890625,-69.82421875,-44.43359375,-40.52734375
126.0234375,-83.49609375,-69.3359375,-43.45703125,-46.38671875
126.02734375,-61.03515625,-67.3828125,-40.52734375,-41.50390625
126.03125,-68.359375,-68.84765625,-41.9921875,-42.96875
126.03515625,-83.49609375,-67.87109375,-43.45703125,-53.22265625
126.0390625,-88.8671875,-63.96484375,-38.0859375,-47.36328125
126.04296875,-59.08203125,-62.01171875,-36.62109375,-15.13671875
126.046875,-46.38671875,-60.05859375,-40.52734375,-31.25
126.05078125,-59.08203125,-60.546875,-42.48046875,-73.73046875
126.0546875,-76.66015625,-59.08203125,-37.59765625,-47.36328125
126.05859375,-83.0078125,-56.640625,-36.62109375,-38.0859375
126.0625,-64.453125,-55.6640625,-39.55078125,-46.38671875
126.06640625,-66.89453125,-54.6875,-37.109375,-33.69140625
126.0703125,-83.0078125,-56.640625,-39.55078125,-28.3203125
126.07421875,-76.171875,-60.546875,-40.0390625,-35.64453125
126.078125,-51.26953125,-61.5234375,-36.1328125,-34.66796875
126.08203125,-41.015625,-62.98828125,-33.203125,-22.94921875
126.0859375,-50.29296875,-63.4765625,-34.1796875,-24.90234375
126.08984375,-64.94140625,-62.01171875,-38.0859375,-42.48046875
126.09375,-55.6640625,-64.453125,-37.59765625,-59.08203125
126.09765625,-38.0859375,-59.5703125,-37.59765625,-22.4609375
126.1015625,-49.31640625,-53.22265625,-35.64453125,-8.7890625
126.10546875,-77.1484375,-50.29296875,-38.0859375,-65.4296875
126.109375,-63.4765625,-50.29296875,-39.0625,-55.17578125
126.11328125,-53.22265625,-50.29296875,-34.1796875,-34.66796875
126.1171875,-61.03515625,-48.33984375,-31.73828125,-46.875
126.12109375,-74.70703125,-50.78125,-34.1796875,-44.921875
126.125,-51.26953125,-50.78125,-32.2265625,-1.953125
126.12890625,-25.87890625,-50.29296875,-32.2265625,-19.53125
126.1328125,-47.36328125,-52.24609375,-33.69140625,-70.80078125
126.13671875,-54.19921875,-52.734375,-27.83203125,-47.8515625
126.140625,-60.05859375,-51.26953125,-27.83203125,-18.06640625
126.14453125,-49.8046875,-51.7578125,-34.1796875,-42.96875
126.1484375,-42.48046875,-51.7578125,-37.109375,-51.7578125
126.15234375,-59.08203125,-49.31640625,-33.203125,-36.1328125
126.15625,-81.54296875,-49.31640625,-30.2734375,-52.24609375
126.16015625,-52.24609375,-47.36328125,-27.83203125,-55.17578125
126.1640625,-35.64453125,-46.875,-25.390625,-40.52734375
126.16796875,-75.1953125,-46.875,-25.87890625,-18.5546875
126.171875,-88.8671875,-44.921875,-30.76171875,-12.6953125
126.17578125,-69.3359375,-44.921875,-31.25,-38.57421875
126.1796875,-58.10546875,-41.015625,-29.78515625,-40.0390625
126.18359375,-46.38671875,-41.9921875,-29.78515625,-32.2265625
126.1875,-45.8984375,-45.8984375,-26.3671875,-27.83203125
126.19140625,-71.77734375,-44.43359375,-22.4609375,-23.92578125
126.1953125,-67.87109375,-42.96875,-25.87890625,-23.4375
126.19921875,-47.8515625,-41.50390625,-26.3671875,-29.296875
126.203125,-58.59375,-41.9921875,-27.83203125,-21.97265625
126.20703125,-41.9921875,-42.96875,-36.1328125,-31.25
126.2109375,-24.90234375,-42.96875,-25.87890625,-21.97265625
126.21484375,-33.203125,-44.921875,-20.01953125,-20.01953125
126.21875,-62.98828125,-46.875,-36.62109375,-50.29296875
126.22265625,-73.2421875,-46.38671875,-30.2734375,-52.734375
126.2265625,-53.22265625,-38.0859375,-8.30078125,-55.6640625
126.23046875,-63.96484375,-32.2265625,-13.671875,-72.75390625
126.234375,-101.07421875,-27.34375,-17.08984375,-79.58984375
126.23828125,-103.02734375,-14.16015625,-3.90625,-76.171875
126.2421875,-117.67578125,-1.953125,-10.7421875,-93.26171875
126.24609375,-124.0234375,116.2109375,-11.23046875,-98.6328125
126.25,-127.9296875,266.11328125,-6.8359375,-108.88671875
126.25390625,-162.59765625,276.85546875,-14.16015625,-140.625
126.2578125,-166.015625,260.7421875,-10.7421875,-137.20703125
126.26171875,-145.01953125,256.8359375,-6.8359375,-121.09375
126.265625,-152.83203125,245.1171875,-7.32421875,-126.46484375
126.26953125,-197.265625,231.93359375,-0.9765625,-130.859375
126.2734375,-199.70703125,218.26171875,-11.23046875,-133.7890625
126.27734375,-136.23046875,207.51953125,-19.53125,-165.0390625
126.28125,-137.6953125,195.3125,-17.578125,-166.50390625
126.28515625,-178.7109375,180.17578125,-26.3671875,-135.25390625
126.2890625,-141.11328125,168.9453125,-26.85546875,-105.95703125
126.29296875,-116.2109375,162.109375,-29.78515625,-93.75
126.296875,-83.49609375,153.3203125,-41.9921875,-83.0078125
126.30078125,-77.1484375,143.5546875,-46.38671875,-65.4296875
126.3046875,-106.93359375,135.7421875,-47.36328125,-44.921875
126.30859375,-85.9375,125.0,-50.78125,-53.22265625
126.3125,26.85546875,116.2109375,-52.24609375,-64.94140625
126.31640625,28.80859375,110.3515625,-56.640625,-49.31640625
126.3203125,-100.09765625,99.12109375,-54.19921875,-34.1796875
126.32421875,-72.75390625,88.37890625,-50.78125,-20.01953125
126.328125,-46.38671875,80.078125,-53.22265625,-27.83203125
126.33203125,-45.41015625,71.2890625,-57.6171875,-23.92578125
126.3359375,-41.50390625,74.21875,-52.734375,-3.41796875
126.33984375,-36.1328125,69.3359375,-51.26953125,-15.625
126.34375,-24.4140625,54.19921875,-62.98828125,-20.5078125
126.34765625,-16.6015625,45.41015625,-64.453125,-23.92578125
126.3515625,-22.94921875,41.015625,-57.12890625,-28.3203125
126.35546875,-48.33984375,38.57421875,-58.10546875,-32.2265625
126.359375,-48.33984375,34.66796875,-58.10546875,-26.85546875
126.36328125,-29.296875,31.25,-52.24609375,-13.18359375
126.3671875,-21.484375,30.76171875,-51.7578125,-11.71875
126.37109375,-21.484375,23.92578125,-49.31640625,10.25390625
126.375,-27.83203125,17.08984375,-52.734375,-5.859375
126.37890625,-26.85546875,16.11328125,-54.6875,-33.69140625
126.3828125,-25.390625,15.625,-51.7578125,-12.20703125
126.38671875,-35.64453125,15.13671875,-49.8046875,0.48828125
126.390625,-27.34375,12.20703125,-45.41015625,-7.32421875
126.39453125,-8.7890625,10.25390625,-47.8515625,-10.7421875
126.3984375,-2.44140625,4.8828125,-51.26953125,-24.4140625
126.40234375,-39.0625,-4.39453125,-53.7109375,-10.25390625
126.40625,-48.33984375,-5.859375,-53.22265625,-16.11328125
126.41015625,-26.85546875,-5.859375,-48.33984375,-13.671875
126.4140625,-13.671875,-5.37109375,-51.26953125,-0.9765625
126.41796875,-25.87890625,-4.39453125,-49.8046875,-18.06640625
126.421875,-41.015625,-6.8359375,-44.921875,-10.25390625
126.42578125,0.9765625,-4.39453125,-45.8984375,-11.23046875
126.4296875,30.2734375,-6.8359375,-44.921875,-17.08984375
126.43359375,-24.4140625,-14.16015625,-45.41015625,0.0
126.4375,-48.828125,-11.71875,-41.50390625,3.41796875
126.44140625,-36.1328125,-9.765625,-41.015625,-26.85546875
126.4453125,-20.99609375,-14.6484375,-40.52734375,-26.85546875
126.44921875,-21.97265625,-22.4609375,-42.48046875,-22.94921875
126.453125,-53.7109375,-20.99609375,-45.8984375,-20.5078125
126.45703125,-31.25,-15.625,-41.015625,-9.27734375
126.4609375,-6.8359375,-18.06640625,-44.43359375,-16.6015625
126.46484375,-33.69140625,-22.94921875,-54.19921875,-27.34375
126.46875,-48.33984375,-24.4140625,-52.24609375,-19.04296875
126.47265625,-38.0859375,-19.04296875,-46.38671875,-17.578125
126.4765625,-26.85546875,-17.08984375,-45.8984375,-14.6484375
126.48046875,-24.90234375,-21.484375,-41.015625,-29.78515625
126.484375,-28.3203125,-19.53125,-35.64453125,-40.52734375
126.48828125,-24.4140625,-17.08984375,-41.50390625,-24.90234375
126.4921875,-31.73828125,-22.94921875,-48.33984375,-17.08984375
126.49609375,-27.83203125,-25.390625,-47.8515625,-11.71875
126.5,-24.90234375,-24.90234375,-48.828125,-29.78515625
126.50390625,-39.55078125,-26.85546875,-45.41015625,-48.33984375
126.5078125,-16.11328125,-24.90234375,-39.0625,-38.0859375
126.51171875,0.0,-23.4375,-40.0390625,-32.71484375
126.515625,-16.11328125,-26.3671875,-47.36328125,-34.66796875
126.51953125,-44.43359375,-23.92578125,-44.43359375,-27.83203125
126.5234375,-38.0859375,-23.4375,-40.52734375,-26.85546875
126.52734375,-5.37109375,-25.390625,-37.59765625,-10.25390625
126.53125,-20.99609375,-27.34375,-41.9921875,-11.23046875
126.53515625,-48.33984375,-27.34375,-41.015625,-29.78515625
126.5390625,-54.6875,-27.83203125,-40.0390625,-22.94921875
126.54296875,-41.9921875,-33.69140625,-44.921875,-28.3203125
126.546875,-38.57421875,-33.203125,-39.0625,-24.4140625
126.55078125,-47.36328125,-33.203125,-33.69140625,-21.484375
126.5546875,-46.875,-36.62109375,-34.66796875,-20.01953125
126.55859375,-40.0390625,-39.0625,-40.52734375,-25.390625
126.5625,-21.484375,-35.64453125,-35.64453125,-11.23046875
126.56640625,-43.45703125,-33.69140625,-31.73828125,-24.4140625
126.5703125,-63.96484375,-37.59765625,-41.9921875,-38.0859375
126.57421875,-49.8046875,-38.0859375,-44.43359375,-24.90234375
126.578125,-34.66796875,-37.59765625,-42.48046875,-35.15625
126.58203125,-34.66796875,-36.62109375,-41.50390625,-40.0390625
126.5859375,-51.7578125,-41.015625,-43.9453125,-31.25
126.58984375,-58.59375,-45.41015625,-40.0390625,-34.1796875
126.59375,-45.41015625,-42.48046875,-33.203125,-32.71484375
126.59765625,-28.80859375,-38.0859375,-35.64453125,-30.76171875
126.6015625,-27.83203125,-37.59765625,-36.1328125,-20.5078125
126.60546875,-47.36328125,-42.48046875,-36.62109375,-16.11328125
126.609375,-50.78125,-43.45703125,-36.62109375,-38.0859375
126.61328125,-33.69140625,-41.015625,-34.66796875,-40.0390625
126.6171875,-49.8046875,-41.9921875,-36.62109375,-34.66796875
126.62109375,-53.7109375,-39.0625,-33.203125,-35.15625
126.625,-44.43359375,-39.0625,-32.2265625,-40.0390625
126.62890625,-24.4140625,-42.96875,-39.55078125,-30.76171875
126.6328125,-28.3203125,-41.9921875,-42.96875,-21.97265625
126.63671875,-53.22265625,-41.50390625,-44.43359375,-26.85546875
126.640625,-50.29296875,-43.9453125,-44.921875,-38.0859375
126.64453125,-25.87890625,-43.45703125,-46.38671875,-48.828125
126.6484375,-42.96875,-47.8515625,-47.8515625,-47.8515625
126.65234375,-65.4296875,-49.31640625,-47.36328125,-29.78515625
126.65625,-45.41015625,-41.9921875,-40.52734375,-17.08984375
126.66015625,-40.52734375,-40.0390625,-36.62109375,-30.2734375
126.6640625,-14.6484375,-46.38671875,-39.55078125,-31.25
126.66796875,-6.8359375,-47.36328125,-41.50390625,-24.90234375
126.671875,-61.5234375,-45.41015625,-41.50390625,-30.2734375
126.67578125,-49.31640625,-41.015625,-46.38671875,-40.0390625
126.6796875,-31.25,-45.8984375,-47.8515625,-42.96875
126.68359375,-52.734375,-51.26953125,-39.0625,-37.109375
126.6875,-58.10546875,-49.8046875,-43.9453125,-42.96875
126.69140625,-62.98828125,-44.43359375,-47.8515625,-56.640625
126.6953125,-44.43359375,-42.96875,-45.41015625,-50.78125
126.69921875,-44.921875,-49.8046875,-46.875,-43.9453125
126.703125,-61.03515625,-50.29296875,-41.50390625,-34.1796875
126.70703125,-51.26953125,-45.8984375,-39.55078125,-31.25
126.7109375,-30.2734375,-45.8984375,-43.9453125,-36.1328125
126.71484375,-21.97265625,-48.33984375,-39.55078125,-40.0390625
126.71875,-20.01953125,-44.921875,-36.1328125,-30.2734375
126.72265625,-38.57421875,-43.9453125,-41.015625,-34.1796875
126.7265625,-37.59765625,-44.921875,-36.62109375,-21.484375
126.73046875,-24.4140625,-46.38671875,-37.59765625,-29.78515625
126.734375,-49.31640625,-43.9453125,-33.69140625,-31.73828125
126.73828125,-49.8046875,-43.45703125,-32.2265625,-24.4140625
126.7421875,-38.57421875,-47.36328125,-40.52734375,-22.94921875
126.74609375,-20.5078125,-47.36328125,-38.57421875,-18.5546875
126.75,8.30078125,-46.38671875,-40.52734375,-30.76171875
126.75390625,-12.6953125,-41.9921875,-38.57421875,-38.57421875
126.7578125,1.46484375,-40.0390625,-32.71484375,-30.76171875
126.76171875,-2.9296875,-44.43359375,-35.15625,-27.34375
126.765625,-50.29296875,-45.41015625,-38.0859375,-27.34375
126.76953125,-64.94140625,-46.875,-44.921875,-17.08984375
126.7734375,-55.6640625,-47.8515625,-44.921875,-8.7890625
126.77734375,-31.73828125,-43.45703125,-38.57421875,-18.06640625
126.78125,-23.92578125,-45.8984375,-41.9921875,-35.64453125
126.78515625,-36.1328125,-50.78125,-45.8984375,-41.015625
126.7890625,-50.78125,-47.8515625,-41.9921875,-24.90234375
126.79296875,-18.5546875,-47.8515625,-39.55078125,-18.5546875
126.796875,-26.3671875,-47.8515625,-41.015625,-33.203125
126.80078125,-52.24609375,-46.38671875,-40.0390625,-40.0390625
126.8046875,-34.1796875,-46.38671875,-43.9453125,-43.9453125
126.80859375,-24.90234375,-45.8984375,-43.9453125,-38.57421875
126.8125,-22.94921875,-41.50390625,-40.0390625,-44.921875
126.81640625,-38.0859375,-44.43359375,-41.9921875,-42.96875
126.8203125,-46.38671875,-48.33984375,-43.9453125,-20.5078125
126.82421875,-32.71484375,-43.9453125,-43.45703125,-32.71484375
126.828125,-27.34375,-41.50390625,-37.59765625,-34.1796875
126.83203125,-24.4140625,-40.52734375,-37.109375,-20.99609375
126.8359375,-53.7109375,-39.55078125,-41.9921875,-38.0859375
126.83984375,-48.828125,-42.48046875,-41.015625,-33.203125
126.84375,-24.90234375,-42.48046875,-34.66796875,-35.64453125
126.84765625,-25.390625,-35.15625,-36.62109375,-44.921875
126.8515625,-30.2734375,-38.0859375,-42.48046875,-34.66796875
126.85546875,-17.08984375,-43.9453125,-43.9453125,-31.73828125
126.859375,-21.97265625,-38.0859375,-39.55078125,-28.80859375
126.86328125,-32.71484375,-33.69140625,-27.83203125,-20.99609375
126.8671875,-31.73828125,-36.62109375,-27.83203125,-28.80859375
126.87109375,-43.45703125,-41.9921875,-39.0625,-31.25
126.875,-24.4140625,-42.48046875,-38.0859375,-35.64453125
126.87890625,-29.78515625,-43.9453125,-34.1796875,-34.1796875
126.8828125,-54.6875,-46.875,-36.1328125,-0.9765625
126.88671875,-53.22265625,-45.41015625,-33.69140625,-13.18359375
126.890625,-63.96484375,-43.9453125,-38.57421875,-33.203125
126.89453125,-58.10546875,-42.96875,-38.0859375,-13.671875
126.8984375,-34.1796875,-45.41015625,-35.15625,-26.3671875
126.90234375,-37.59765625,-44.921875,-40.0390625,-44.43359375
126.90625,-70.3125,-47.8515625,-39.55078125,-36.1328125
126.91015625,-59.5703125,-45.41015625,-32.71484375,-26.3671875
126.9140625,-28.3203125,-40.0390625,-36.1328125,-33.69140625
126.91796875,-45.41015625,-42.96875,-39.0625,-29.296875
126.921875,-50.78125,-44.43359375,-36.62109375,-36.1328125
126.92578125,-47.8515625,-43.9453125,-34.1796875,-34.1796875
126.9296875,-46.38671875,-40.0390625,-33.203125,-24.90234375
126.93359375,-6.8359375,-39.0625,-36.62109375,-39.0625
126.9375,2.9296875,-39.55078125,-32.71484375,-39.55078125
126.94140625,-32.71484375,-38.57421875,-34.66796875,-16.11328125
126.9453125,-19.04296875,-39.55078125,-40.0390625,-32.71484375
126.94921875,-35.15625,-41.9921875,-39.55078125,-61.5234375
126.953125,-65.91796875,-40.52734375,-40.0390625,-37.59765625
126.95703125,-55.6640625,-40.0390625,-41.015625,-26.85546875
126.9609375,-38.57421875,-44.921875,-41.9921875,-44.921875
126.96484375,-35.64453125,-42.96875,-41.015625,-39.0625
126.96875,-36.62109375,-41.9921875,-35.64453125,-38.0859375
126.97265625,-36.1328125,-44.43359375,-42.48046875,-58.59375
126.9765625,-20.99609375,-39.55078125,-41.9921875,-47.8515625
126.98046875,-21.484375,-37.109375,-37.59765625,-36.1328125
126.984375,-54.19921875,-41.50390625,-41.9921875,-39.55078125
126.98828125,-83.49609375,-39.55078125,-38.57421875,-36.62109375
126.9921875,-53.7109375,-38.0859375,-34.66796875,-36.62109375
126.99609375,-30.2734375,-38.0859375,-34.66796875,-43.45703125
127.0,-46.875,-39.55078125,-39.55078125,-48.828125
127.00390625,-44.43359375,-36.62109375,-37.109375,-37.109375
127.0078125,-47.36328125,-33.203125,-36.1328125,-23.4375
127.01171875,-46.38671875,-36.1328125,-37.109375,-58.59375
127.015625,-52.24609375,-36.62109375,-28.80859375,-59.08203125
127.01953125,-80.56640625,-37.59765625,-30.76171875,-41.015625
127.0234375,-61.03515625,-40.0390625,-33.69140625,-45.8984375
127.02734375,-30.2734375,-37.59765625,-31.25,-47.36328125
127.03125,-32.71484375,-36.1328125,-35.15625,-55.6640625
127.03515625,-59.08203125,-36.62109375,-30.76171875,-50.29296875
127.0390625,-63.4765625,-39.55078125,-29.296875,-27.83203125
127.04296875,-43.9453125,-38.57421875,-30.2734375,-26.3671875
127.046875,-48.828125,-33.69140625,-26.3671875,-45.8984375
127.05078125,-58.10546875,-32.71484375,-32.2265625,-23.92578125
127.0546875,-56.640625,-34.66796875,-32.71484375,-21.97265625
127.05859375,-40.52734375,-35.64453125,-27.34375,-43.9453125
127.0625,-38.57421875,-33.69140625,-36.62109375,-55.17578125
127.06640625,-61.03515625,-32.71484375,-37.59765625,-54.6875
127.0703125,-73.73046875,-28.80859375,-35.64453125,-44.921875
127.07421875,-50.29296875,-30.2734375,-37.59765625,-55.17578125
127.078125,-34.66796875,-34.66796875,-36.62109375,-49.8046875
127.08203125,-48.33984375,-36.62109375,-37.59765625,-33.203125
127.0859375,-59.5703125,-37.109375,-38.0859375,-39.55078125
127.08984375,-43.9453125,-35.15625,-36.62109375,-42.96875
127.09375,5.37109375,-34.1796875,-38.57421875,-28.3203125
127.09765625,17.08984375,-31.25,-33.203125,-23.4375
127.1015625,-34.1796875,-35.64453125,-33.69140625,-9.765625
127.10546875,-50.29296875,-38.57421875,-36.1328125,-14.16015625
127.109375,-45.8984375,-33.203125,-36.1328125,-41.015625
127.11328125,-45.41015625,-33.203125,-36.1328125,-26.3671875
127.1171875,-52.734375,-36.62109375,-33.203125,-32.2265625
127.12109375,-41.50390625,-38.0859375,-36.1328125,-40.0390625
127.125,-10.25390625,-38.57421875,-42.48046875,-31.73828125
127.12890625,-36.1328125,-37.109375,-42.48046875,-32.2265625
127.1328125,-54.19921875,-35.15625,-37.109375,-26.85546875
127.13671875,-56.15234375,-36.1328125,-39.55078125,-21.484375
127.140625,-49.31640625,-37.59765625,-39.0625,-29.296875
127.14453125,-38.57421875,-37.59765625,-40.0390625,-33.69140625
127.1484375,-32.71484375,-41.9921875,-41.9921875,-29.78515625
127.15234375,-41.9921875,-43.45703125,-38.57421875,-20.99609375
127.15625,-39.0625,-39.0625,-34.66796875,-4.39453125
127.16015625,-12.20703125,-36.62109375,-32.71484375,-16.6015625
127.1640625,-9.27734375,-38.57421875,-34.1796875,-33.69140625
127.16796875,-43.45703125,-38.57421875,-34.1796875,-47.8515625
127.171875,-57.12890625,-36.62109375,-33.203125,-29.296875
127.17578125,-14.16015625,-34.66796875,-32.71484375,-18.06640625
127.1796875,4.8828125,-35.15625,-36.1328125,-28.80859375
127.18359375,-45.41015625,-38.0859375,-31.73828125,-20.99609375
127.1875,-53.7109375,-41.50390625,-30.76171875,-16.6015625
127.19140625,-37.59765625,-40.52734375,-35.64453125,-11.71875
127.1953125,-35.15625,-37.59765625,-32.2265625,-11.23046875
127.19921875,-44.921875,-34.66796875,-31.25,-36.1328125
127.203125,-70.80078125,-34.66796875,-35.15625,-55.17578125
127.20703125,-52.734375,-34.66796875,-32.71484375,-38.0859375
127.2109375,-28.3203125,-33.69140625,-29.296875,-22.94921875
127.21484375,-27.83203125,-40.52734375,-33.69140625,-26.85546875
127.21875,-57.12890625,-42.96875,-36.1328125,-34.1796875
127.22265625,-61.5234375,-39.0625,-40.52734375,-33.69140625
127.2265625,-22.4609375,-37.109375,-39.55078125,-24.4140625
127.23046875,-23.92578125,-36.62109375,-38.0859375,-26.85546875
127.234375,-48.828125,-35.64453125,-42.48046875,-34.1796875
127.23828125,-64.453125,-31.73828125,-39.0625,-23.4375
127.2421875,-36.62109375,-32.2265625,-40.0390625,-33.69140625
127.24609375,-15.625,-37.109375,-41.015625,-32.71484375
127.25,-50.78125,-39.55078125,-36.62109375,-10.7421875
127.25390625,-45.41015625,-41.9921875,-38.57421875,-35.64453125
127.2578125,-41.015625,-42.48046875,-44.921875,-52.734375
127.26171875,-51.7578125,-38.57421875,-40.0390625,-40.0390625
127.265625,-45.41015625,-36.62109375,-35.15625,-39.0625
127.26953125,-58.10546875,-37.109375,-41.015625,-41.50390625
127.2734375,-69.82421875,-35.64453125,-42.48046875,-28.3203125
127.27734375,-42.96875,-33.69140625,-39.55078125,-28.80859375
127.28125,-40.0390625,-33.203125,-35.64453125,-18.5546875
127.28515625,-77.1484375,-37.109375,-33.203125,-15.13671875
127.2890625,-77.1484375,-39.55078125,-42.48046875,-59.5703125
127.29296875,-70.80078125,-39.0625,-46.38671875,-42.96875
127.296875,-45.41015625,-36.62109375,-40.0390625,-21.484375
127.30078125,-42.48046875,-42.96875,-33.69140625,-32.2265625
127.3046875,-58.59375,-42.96875,-31.73828125,-18.06640625
127.30859375,-31.25,-38.57421875,-30.76171875,-22.4609375
127.3125,-23.92578125,-39.55078125,-34.66796875,-47.8515625
127.31640625,-58.59375,-37.109375,-42.96875,-40.0390625
127.3203125,-86.9140625,-36.1328125,-45.41015625,-36.62109375
127.32421875,-63.4765625,-40.0390625,-41.9921875,-39.0625
127.328125,-34.66796875,-41.9921875,-43.9453125,-38.57421875
127.33203125,-41.015625,-40.52734375,-44.43359375,-37.59765625
127.3359375,-52.24609375,-35.15625,-39.55078125,-18.5546875
127.33984375,-49.8046875,-36.62109375,-41.9921875,-20.99609375
127.34375,-44.43359375,-41.015625,-40.52734375,-44.921875
127.34765625,-43.9453125,-37.109375,-38.0859375,-37.59765625
127.3515625,-51.7578125,-39.0625,-32.71484375,-25.390625
127.35546875,-53.7109375,-39.0625,-28.3203125,-16.11328125
127.359375,-32.71484375,-35.64453125,-30.2734375,-29.296875
127.36328125,-13.671875,-36.1328125,-29.78515625,-26.3671875
127.3671875,-26.85546875,-35.64453125,-31.73828125,-12.6953125
127.37109375,-56.15234375,-38.57421875,-33.69140625,-34.1796875
127.375,-46.875,-41.50390625,-36.62109375,-27.83203125
127.37890625,-20.99609375,-42.96875,-35.64453125,-22.4609375
127.3828125,-29.296875,-41.015625,-37.109375,-46.38671875
127.38671875,-54.19921875,-41.50390625,-41.015625,-47.36328125
127.390625,-50.78125,-41.9921875,-42.96875,-34.66796875
127.39453125,-22.4609375,-39.0625,-44.43359375,-30.76171875
127.3984375,-18.06640625,-38.0859375,-41.015625,-34.66796875
127.40234375,-41.50390625,-39.0625,-37.109375,-25.390625
127.40625,-32.2265625,-39.0625,-38.57421875,-33.69140625
127.41015625,-29.296875,-31.25,-38.57421875,-28.80859375
127.4140625,-23.92578125,-32.2265625,-34.1796875,-16.11328125
127.41796875,-9.27734375,-35.15625,-29.296875,-0.48828125
127.421875,-29.78515625,-34.66796875,-26.3671875,9.27734375
127.42578125,-24.4140625,-38.57421875,-32.71484375,-18.06640625
127.4296875,-1.46484375,-40.0390625,-41.50390625,-44.921875
127.43359375,-35.15625,-39.0625,-43.45703125,-46.875
127.4375,-65.4296875,-36.62109375,-41.015625,-40.52734375
127.44140625,-16.6015625,-34.66796875,-37.109375,-18.06640625
127.4453125,-1.46484375,-35.64453125,-34.1796875,-10.7421875
127.44921875,-36.1328125,-40.0390625,-37.109375,-22.94921875
127.453125,-30.76171875,-39.55078125,-41.9921875,-27.83203125
127.45703125,-36.1328125,-34.66796875,-38.57421875,-29.296875
127.4609375,-15.625,-31.73828125,-35.64453125,-28.80859375
127.46484375,-19.53125,-32.71484375,-36.62109375,-20.99609375
127.46875,-53.7109375,-35.64453125,-40.0390625,-14.6484375
127.47265625,-36.1328125,-34.66796875,-43.45703125,-19.53125
127.4765625,-17.578125,-33.69140625,-35.15625,-17.578125
127.48046875,24.4140625,-35.64453125,-34.1796875,-22.94921875
127.484375,-3.90625,-37.109375,-42.96875,-20.99609375
127.48828125,-63.4765625,-40.0390625,-44.43359375,-30.76171875
127.4921875,-45.8984375,-36.62109375,-41.50390625,-40.0390625
127.49609375,-44.43359375,-33.69140625,-39.55078125,-33.203125
127.5,-54.19921875,-37.109375,-44.43359375,-38.57421875
127.50390625,-56.15234375,-38.57421875,-51.26953125,-36.62109375
127.5078125,-45.41015625,-41.015625,-52.24609375,-36.1328125
127.51171875,-36.1328125,-42.48046875,-45.41015625,-24.90234375
127.515625,-37.109375,-42.96875,-41.50390625,-20.99609375
127.51953125,-50.29296875,-46.38671875,-41.50390625,-51.7578125
127.5234375,-64.94140625,-49.31640625,-44.43359375,-36.1328125
127.52734375,-61.03515625,-48.33984375,-46.38671875,-49.31640625
127.53125,-48.828125,-46.38671875,-42.48046875,-41.50390625
127.53515625,-61.5234375,-41.50390625,-38.57421875,-23.4375
127.5390625,-78.61328125,-37.109375,-45.8984375,-58.10546875
127.54296875,-42.48046875,-38.57421875,-50.29296875,-53.7109375
127.546875,-32.2265625,-38.57421875,-46.38671875,-50.29296875
127.55078125,-63.96484375,-38.57421875,-45.8984375,-42.48046875
127.5546875,-72.75390625,-38.0859375,-45.8984375,-38.0859375
127.55859375,-56.15234375,-38.57421875,-41.9921875,-49.8046875
127.5625,-33.69140625,-37.59765625,-37.59765625,-33.203125
127.56640625,-50.78125,-35.15625,-38.57421875,-37.109375
127.5703125,-60.05859375,-34.66796875,-35.15625,-31.73828125
127.57421875,-22.94921875,-36.1328125,-34.1796875,-14.6484375
127.578125,-1.46484375,-40.52734375,-38.57421875,-28.3203125
127.58203125,-26.85546875,-39.0625,-36.1328125,-46.875
127.5859375,-58.59375,-34.66796875,-39.55078125,-50.29296875
127.58984375,-79.1015625,-36.1328125,-41.50390625,-54.6875
127.59375,-66.40625,-36.1328125,-39.55078125,-56.15234375
127.59765625,-56.640625,-33.203125,-40.52734375,-41.50390625
127.6015625,-68.84765625,-34.1796875,-40.52734375,-43.45703125
127.60546875,-67.87109375,-34.1796875,-37.109375,-31.73828125
127.609375,-46.875,-33.69140625,-34.66796875,-37.109375
127.61328125,-28.80859375,-33.69140625,-36.1328125,-52.24609375
127.6171875,-44.43359375,-32.71484375,-35.64453125,-33.69140625
127.62109375,-67.87109375,-38.57421875,-39.55078125,-46.875
127.625,-51.26953125,-41.50390625,-41.9921875,-52.734375
127.62890625,-26.85546875,-38.0859375,-42.96875,-32.71484375
127.6328125,-42.48046875,-35.64453125,-42.48046875,-41.015625
127.63671875,-73.2421875,-38.0859375,-39.55078125,-43.45703125
127.640625,-61.03515625,-39.55078125,-37.59765625,-43.45703125
127.64453125,-40.0390625,-35.64453125,-32.71484375,-44.43359375
127.6484375,-41.50390625,-32.71484375,-27.34375,-21.97265625
127.65234375,-51.7578125,-34.66796875,-31.73828125,-26.85546875
127.65625,-48.828125,-37.59765625,-35.15625,-45.8984375
127.66015625,-41.015625,-36.62109375,-32.2265625,-36.62109375
127.6640625,-31.73828125,-34.1796875,-30.2734375,-39.55078125
127.66796875,-34.1796875,-34.1796875,-34.1796875,-42.96875
127.671875,-58.10546875,-34.66796875,-36.1328125,-29.78515625
127.67578125,-29.296875,-28.80859375,-30.76171875,-14.16015625
127.6796875,-17.578125,-29.78515625,-32.71484375,-18.06640625
127.68359375,-37.109375,-33.69140625,-35.15625,-30.76171875
127.6875,-52.24609375,-36.62109375,-40.0390625,-28.80859375
127.69140625,-54.19921875,-37.109375,-41.015625,-40.52734375
127.6953125,-56.640625,-34.66796875,-33.203125,-51.7578125
127.69921875,-54.19921875,-35.15625,-37.109375,-42.48046875
127.703125,-45.8984375,-35.15625,-38.57421875,-30.2734375
127.70703125,-63.4765625,-33.69140625,-30.76171875,-22.4609375
127.7109375,-56.15234375,-34.66796875,-34.66796875,-37.59765625
127.71484375,-56.640625,-37.109375,-40.52734375,-47.36328125
127.71875,-68.359375,-38.57421875,-44.43359375,-39.55078125
127.72265625,-60.05859375,-40.52734375,-41.015625,-41.9921875
127.7265625,-49.31640625,-37.109375,-37.59765625,-24.90234375
127.73046875,-39.0625,-33.203125,-37.59765625,-29.78515625
127.734375,-48.828125,-32.2265625,-34.1796875,-32.2265625
127.73828125,-34.66796875,-34.66796875,-38.57421875,-17.08984375
127.7421875,-7.8125,-30.76171875,-38.0859375,-29.296875
127.74609375,-28.3203125,-27.83203125,-32.2265625,-35.15625
127.75,-37.109375,-33.69140625,-33.203125,-23.92578125
127.75390625,-45.41015625,-35.64453125,-34.66796875,-15.625
127.7578125,-20.99609375,-34.66796875,-33.69140625,-32.71484375
127.76171875,-14.6484375,-34.66796875,-30.76171875,-32.2265625
127.765625,-54.6875,-34.66796875,-33.203125,-20.5078125
127.76953125,-51.7578125,-36.1328125,-40.0390625,-33.69140625
127.7734375,-36.1328125,-37.59765625,-35.64453125,-40.52734375
127.77734375,-32.71484375,-38.57421875,-36.62109375,-26.3671875
127.78125,-31.25,-39.55078125,-42.48046875,-13.18359375
127.78515625,-39.0625,-35.64453125,-40.52734375,-26.85546875
127.7890625,-68.359375,-37.109375,-41.015625,-34.1796875
127.79296875,-60.546875,-41.50390625,-38.57421875,-33.69140625
127.796875,-37.59765625,-39.55078125,-36.62109375,-32.71484375
127.80078125,-56.15234375,-38.57421875,-43.45703125,-32.2265625
127.8046875,-70.3125,-38.0859375,-42.96875,-30.76171875
127.80859375,-63.4765625,-38.57421875,-42.48046875,-40.52734375
127.8125,-51.26953125,-40.52734375,-42.96875,-50.29296875
127.81640625,-60.05859375,-41.50390625,-38.0859375,-38.57421875
127.8203125,-62.5,-39.0625,-37.59765625,-37.59765625
127.82421875,-48.33984375,-41.50390625,-40.0390625,-43.45703125
