Timestamp,TP9,AF7,AF8,TP10
0.00390625,-39.55078125,-39.55078125,95.703125,-47.36328125
0.0078125,-43.45703125,-35.64453125,-532.2265625,-50.29296875
0.01171875,-40.52734375,-32.2265625,-156.25,-46.38671875
0.015625,-43.45703125,-34.66796875,-52.734375,-43.45703125
0.01953125,-44.921875,-36.62109375,212.890625,-33.203125
0.0234375,-44.921875,-33.203125,770.01953125,-33.69140625
0.02734375,-42.96875,-27.34375,-135.25390625,-42.96875
0.03125,-36.62109375,-29.296875,-406.25,-46.875
0.03515625,-34.66796875,-33.203125,-234.86328125,-42.48046875
0.0390625,-12.20703125,-28.80859375,-228.02734375,-28.80859375
0.04296875,-2.9296875,-26.85546875,532.2265625,-23.92578125
0.046875,-52.734375,-30.2734375,107.91015625,-39.55078125
0.05078125,-64.94140625,-37.59765625,-403.80859375,-38.57421875
0.0546875,-41.9921875,-36.62109375,-376.953125,-34.1796875
0.05859375,-46.875,-33.69140625,-25.87890625,-23.4375
0.0625,-42.96875,-32.71484375,158.69140625,-32.71484375
0.06640625,-26.85546875,-26.3671875,553.7109375,-43.45703125
0.0703125,-20.99609375,-32.2265625,-24.4140625,-30.2734375
0.07421875,-14.6484375,-33.69140625,-739.2578125,-12.20703125
0.078125,-24.90234375,-32.2265625,-117.1875,-33.69140625
0.08203125,-34.66796875,-31.25,31.25,-44.43359375
0.0859375,-40.52734375,-30.76171875,-445.80078125,-32.2265625
0.08984375,-38.0859375,-35.64453125,-270.5078125,-26.3671875
0.09375,-28.3203125,-34.66796875,154.78515625,-26.3671875
0.09765625,-31.73828125,-33.203125,54.19921875,-39.55078125
0.1015625,-43.45703125,-37.109375,-375.9765625,-48.33984375
0.10546875,-53.22265625,-38.0859375,-57.6171875,-23.92578125
0.109375,-36.62109375,-41.015625,290.52734375,-22.4609375
0.11328125,-21.97265625,-41.50390625,521.97265625,-49.8046875
0.1171875,-37.59765625,-39.0625,873.53515625,-56.640625
0.12109375,-41.015625,-42.48046875,67.87109375,-54.19921875
0.125,-60.546875,-43.45703125,-596.19140625,-43.9453125
0.12890625,-65.91796875,-41.015625,-550.29296875,-48.828125
0.1328125,-59.08203125,-38.57421875,-478.515625,-56.640625
0.13671875,-44.43359375,-37.59765625,418.9453125,-39.55078125
0.140625,-39.0625,-36.62109375,325.68359375,-37.59765625
0.14453125,-62.01171875,-37.59765625,-308.10546875,-33.69140625
0.1484375,-61.03515625,-42.48046875,-536.62109375,-33.69140625
0.15234375,-41.015625,-42.48046875,-97.65625,-40.0390625
0.15625,-41.50390625,-39.0625,294.921875,-26.3671875
0.16015625,-33.203125,-34.66796875,384.765625,-20.99609375
0.1640625,-22.94921875,-28.80859375,443.84765625,-32.71484375
0.16796875,-47.8515625,-34.1796875,-363.76953125,-39.0625
0.171875,-59.08203125,-30.76171875,-403.3203125,-20.99609375
0.17578125,-41.9921875,-26.3671875,19.53125,-20.99609375
0.1796875,-25.390625,-36.62109375,-469.23828125,-42.48046875
0.18359375,-30.76171875,-35.15625,-521.97265625,-51.26953125
0.1875,-24.4140625,-34.1796875,70.80078125,-30.2734375
0.19140625,-37.109375,-40.52734375,91.796875,-30.76171875
0.1953125,-49.8046875,-39.55078125,88.8671875,-22.94921875
0.19921875,-41.9921875,-35.64453125,11.71875,-18.5546875
0.203125,-35.15625,-31.25,164.0625,-32.71484375
0.20703125,-29.296875,-32.2265625,659.1796875,-19.53125
0.2109375,-39.0625,-33.69140625,-78.61328125,-24.4140625
0.21484375,-49.8046875,-26.3671875,-614.2578125,-34.66796875
0.21875,-27.34375,-29.296875,-91.30859375,-25.390625
0.22265625,-17.578125,-27.83203125,-57.12890625,-28.80859375
0.2265625,-43.9453125,-27.34375,-281.25,-31.25
0.23046875,-48.828125,-31.73828125,191.40625,-26.85546875
0.234375,-36.62109375,-34.1796875,316.89453125,-44.921875
0.23828125,-38.57421875,-34.66796875,67.87109375,-61.03515625
0.2421875,-44.921875,-37.59765625,-450.1953125,-52.24609375
0.24609375,-51.26953125,-39.55078125,-370.1171875,-57.12890625
0.25,-32.71484375,-31.25,-106.93359375,-45.8984375
0.25390625,-28.80859375,-25.390625,403.80859375,-20.01953125
0.2578125,-36.62109375,-29.78515625,536.62109375,-17.08984375
0.26171875,-24.90234375,-30.2734375,-216.796875,-25.390625
0.265625,-36.62109375,-34.66796875,-354.98046875,-26.3671875
0.26953125,-51.7578125,-36.62109375,-250.9765625,-23.4375
0.2734375,-40.0390625,-33.203125,-382.32421875,-11.23046875
0.27734375,-24.90234375,-35.15625,-92.7734375,-17.578125
0.28125,-38.57421875,-32.71484375,164.0625,-33.69140625
0.28515625,-32.71484375,-27.34375,-89.35546875,-34.66796875
0.2890625,-24.90234375,-27.83203125,-274.4140625,-21.484375
0.29296875,-34.1796875,-30.2734375,291.015625,-14.6484375
0.296875,-23.4375,-32.2265625,397.94921875,-23.92578125
0.30078125,-14.6484375,-30.76171875,535.64453125,-34.1796875
0.3046875,-29.296875,-33.203125,-155.76171875,-36.62109375
0.30859375,-33.69140625,-31.25,-710.9375,-17.578125
0.3125,-34.1796875,-28.3203125,-132.8125,-15.13671875
0.31640625,-27.34375,-26.3671875,-282.71484375,-30.76171875
0.3203125,-20.5078125,-27.83203125,-240.234375,-26.85546875
0.32421875,-32.71484375,-35.15625,579.58984375,-9.27734375
0.328125,-36.62109375,-39.0625,179.19921875,-31.73828125
0.33203125,-29.296875,-38.57421875,-313.4765625,-56.640625
0.3359375,-28.3203125,-38.57421875,-464.35546875,-42.96875
0.33984375,-37.109375,-33.69140625,-133.30078125,-32.2265625
0.34375,-49.31640625,-34.1796875,230.95703125,-28.3203125
0.34765625,-44.43359375,-40.52734375,570.3125,-41.50390625
0.3515625,-30.76171875,-39.0625,429.19921875,-56.15234375
0.35546875,-37.109375,-38.57421875,-202.1484375,-49.8046875
0.359375,-41.015625,-43.45703125,-503.41796875,-35.15625
0.36328125,-33.69140625,-41.015625,-251.953125,-37.109375
0.3671875,-29.296875,-40.0390625,-317.3828125,-30.76171875
0.37109375,-43.9453125,-41.015625,-442.87109375,-17.578125
0.375,-42.96875,-36.1328125,0.9765625,-29.78515625
0.37890625,-39.0625,-39.0625,109.375,-46.38671875
0.3828125,-49.8046875,-40.0390625,-303.7109375,-41.9921875
0.38671875,-51.7578125,-37.109375,-34.1796875,-27.34375
0.390625,-34.1796875,-39.55078125,90.8203125,-23.92578125
0.39453125,-34.1796875,-39.55078125,386.23046875,-24.90234375
0.3984375,-41.9921875,-31.73828125,556.15234375,-24.90234375
0.40234375,-27.83203125,-36.1328125,-383.7890625,-49.31640625
0.40625,-29.296875,-36.62109375,-280.2734375,-36.62109375
0.41015625,-26.85546875,-28.3203125,349.12109375,-18.06640625
0.4140625,-33.203125,-32.71484375,-141.11328125,-31.25
0.41796875,-45.41015625,-36.62109375,61.03515625,-24.4140625
0.421875,-46.875,-37.59765625,-113.76953125,-27.83203125
0.42578125,-47.36328125,-38.0859375,-458.0078125,-34.1796875
0.4296875,-32.2265625,-40.52734375,-429.19921875,-38.57421875
0.43359375,-39.0625,-39.0625,-198.2421875,-38.0859375
0.4375,-39.55078125,-37.59765625,233.88671875,-11.71875
0.44140625,-14.6484375,-37.59765625,712.890625,-1.953125
0.4453125,-30.76171875,-41.9921875,357.91015625,-21.97265625
0.44921875,-53.7109375,-40.52734375,-756.8359375,-33.203125
0.453125,-49.31640625,-36.1328125,-275.390625,-25.87890625
0.45703125,-45.8984375,-41.50390625,45.8984375,-34.1796875
0.4609375,-59.08203125,-35.64453125,-434.5703125,-52.734375
0.46484375,-48.33984375,-32.2265625,-236.328125,-51.7578125
0.46875,-48.33984375,-36.62109375,493.1640625,-46.38671875
0.47265625,-43.45703125,-36.62109375,202.1484375,-34.66796875
0.4765625,-27.34375,-28.80859375,-636.23046875,-24.4140625
0.48046875,-38.0859375,-29.78515625,-243.1640625,-37.109375
0.484375,-38.57421875,-29.78515625,134.765625,-47.36328125
0.48828125,-28.3203125,-29.78515625,453.61328125,-32.2265625
0.4921875,-45.41015625,-33.69140625,684.5703125,-33.69140625
0.49609375,-54.19921875,-32.71484375,-324.21875,-55.17578125
0.5,-50.78125,-37.59765625,-479.4921875,-67.3828125
0.50390625,-44.921875,-33.203125,-183.59375,-58.10546875
0.5078125,-35.64453125,-32.2265625,-242.1875,-39.0625
0.51171875,-41.015625,-34.1796875,437.98828125,-27.34375
0.515625,-40.52734375,-30.2734375,50.78125,-44.43359375
0.51953125,-32.2265625,-31.73828125,-559.5703125,-45.8984375
0.5234375,-38.0859375,-34.66796875,-437.98828125,-28.80859375
0.52734375,-36.62109375,-33.69140625,197.75390625,-23.92578125
0.53125,-41.50390625,-33.69140625,334.47265625,-35.64453125
0.53515625,-47.36328125,-31.25,470.703125,-46.875
0.5390625,-42.96875,-29.78515625,44.43359375,-39.55078125
0.54296875,-43.45703125,-35.15625,-497.55859375,-36.1328125
0.546875,-33.69140625,-30.76171875,-225.09765625,-30.76171875
0.55078125,-20.01953125,-28.80859375,-116.2109375,-25.87890625
0.5546875,-21.484375,-35.64453125,-325.68359375,-15.13671875
0.55859375,-25.87890625,-31.73828125,1.953125,-19.04296875
0.5625,-31.73828125,-29.296875,247.55859375,-21.97265625
0.56640625,-39.55078125,-35.15625,-78.125,-22.94921875
0.5703125,-25.390625,-29.296875,-67.3828125,-19.53125
0.57421875,-24.90234375,-27.34375,202.63671875,-8.7890625
0.578125,-29.78515625,-30.76171875,107.91015625,-4.8828125
0.58203125,-32.2265625,-26.85546875,602.05078125,-15.625
0.5859375,-33.203125,-34.1796875,722.65625,-22.94921875
0.58984375,-29.296875,-35.15625,-495.1171875,-17.08984375
0.59375,-30.2734375,-27.83203125,-694.82421875,-16.11328125
0.59765625,-29.296875,-25.390625,-325.1953125,-29.296875
0.6015625,-40.52734375,-25.87890625,-281.25,-39.0625
0.60546875,-34.66796875,-26.85546875,444.3359375,-11.23046875
0.609375,-16.6015625,-31.73828125,239.74609375,-8.7890625
0.61328125,1.46484375,-34.66796875,-286.62109375,-35.64453125
0.6171875,-18.5546875,-35.15625,-392.08984375,-27.83203125
0.62109375,-41.015625,-39.0625,-211.9140625,-5.859375
0.625,-41.50390625,-37.59765625,184.5703125,-9.765625
0.62890625,-40.0390625,-34.66796875,735.83984375,-20.5078125
0.6328125,-24.90234375,-31.25,-45.8984375,-30.2734375
0.63671875,-37.109375,-28.3203125,-689.94140625,-20.99609375
0.640625,-43.9453125,-30.2734375,-136.71875,-4.8828125
0.64453125,-29.78515625,-33.69140625,346.19140625,9.765625
0.6484375,-25.87890625,-37.109375,-70.3125,2.9296875
0.65234375,-28.80859375,-28.80859375,-351.5625,-4.39453125
0.65625,-20.5078125,-23.92578125,133.7890625,19.53125
0.66015625,-28.80859375,-29.78515625,37.59765625,0.48828125
0.6640625,-30.76171875,-29.78515625,-400.87890625,-22.94921875
0.66796875,-13.671875,-22.4609375,-109.86328125,-11.71875
0.671875,-26.85546875,-27.83203125,64.94140625,-11.71875
0.67578125,-32.71484375,-30.76171875,595.21484375,-2.44140625
0.6796875,-20.5078125,-28.3203125,189.453125,-14.16015625
0.68359375,-41.015625,-33.203125,-547.8515625,-27.34375
0.6875,-48.33984375,-37.109375,19.04296875,-22.4609375
0.69140625,-25.390625,-37.59765625,-111.328125,-19.04296875
0.6953125,-36.62109375,-31.25,-267.578125,-20.99609375
0.69921875,-43.9453125,-36.62109375,445.3125,-26.85546875
0.703125,-29.296875,-39.0625,516.6015625,-13.671875
0.70703125,-20.99609375,-24.90234375,-154.296875,-0.9765625
0.7109375,-29.78515625,-21.484375,-779.296875,-9.765625
0.71484375,-36.1328125,-27.83203125,-452.1484375,-8.7890625
0.71875,-38.57421875,-34.66796875,-161.62109375,-16.6015625
0.72265625,-37.109375,-29.78515625,442.87109375,3.41796875
0.7265625,-23.4375,-29.78515625,546.875,4.8828125
0.73046875,-30.2734375,-32.71484375,-346.6796875,-35.64453125
0.734375,-35.64453125,-27.83203125,-245.60546875,-29.296875
0.73828125,-29.78515625,-31.25,-148.4375,-1.46484375
0.7421875,-40.52734375,-35.64453125,-334.9609375,7.8125
0.74609375,-29.78515625,-35.15625,-249.51171875,-9.765625
0.75,-19.04296875,-31.25,135.25390625,-8.30078125
0.75390625,-26.3671875,-29.296875,206.0546875,-6.34765625
0.7578125,-22.94921875,-30.76171875,-414.0625,-9.27734375
0.76171875,-36.1328125,-25.390625,270.5078125,-7.32421875
0.765625,-40.52734375,-26.3671875,383.7890625,-9.27734375
0.76953125,-32.71484375,-25.390625,221.6796875,-3.90625
0.7734375,-42.96875,-28.80859375,444.3359375,6.8359375
0.77734375,-37.59765625,-34.1796875,-463.8671875,-18.06640625
0.78125,-22.94921875,-31.73828125,-430.6640625,-34.1796875
0.78515625,-23.92578125,-32.2265625,107.91015625,-13.18359375
0.7890625,-20.5078125,-34.1796875,-113.28125,-4.8828125
0.79296875,-27.34375,-34.66796875,279.78515625,-9.27734375
0.796875,-37.59765625,-36.1328125,174.31640625,-27.83203125
0.80078125,-38.0859375,-35.64453125,-440.4296875,-40.0390625
0.8046875,-42.96875,-30.76171875,-409.66796875,-25.87890625
0.80859375,-42.48046875,-36.62109375,-94.23828125,-24.90234375
0.8125,-54.19921875,-42.48046875,65.4296875,-33.203125
0.81640625,-50.78125,-39.55078125,440.4296875,-30.2734375
0.8203125,-36.1328125,-34.1796875,318.84765625,-23.92578125
0.82421875,-39.55078125,-41.9921875,-347.16796875,-11.71875
0.828125,-26.3671875,-39.0625,-390.625,-6.34765625
0.83203125,-28.80859375,-31.73828125,-43.9453125,-19.53125
0.8359375,-31.25,-34.1796875,-380.37109375,-27.34375
0.83984375,-42.48046875,-37.59765625,-155.76171875,-13.18359375
0.84375,-49.31640625,-36.62109375,255.37109375,-12.20703125
0.84765625,-38.0859375,-26.85546875,-90.8203125,-26.85546875
0.8515625,-38.57421875,-24.90234375,-378.90625,-13.671875
0.85546875,-41.015625,-31.25,-100.5859375,-9.27734375
0.859375,-41.015625,-35.64453125,145.5078125,-26.85546875
0.86328125,-39.0625,-39.0625,617.1875,-32.2265625
0.8671875,-51.26953125,-41.015625,108.3984375,-42.48046875
0.87109375,-43.9453125,-37.59765625,-588.8671875,-32.2265625
0.875,-30.2734375,-37.59765625,-54.6875,-10.25390625
0.87890625,-37.59765625,-34.1796875,278.3203125,-8.30078125
0.8828125,-37.109375,-29.78515625,-258.30078125,-12.6953125
0.88671875,-31.25,-27.34375,268.5546875,-11.23046875
0.890625,-38.57421875,-27.83203125,107.91015625,-10.7421875
0.89453125,-44.43359375,-35.64453125,-506.34765625,-21.484375
0.8984375,-38.0859375,-34.1796875,-283.203125,-39.55078125
0.90234375,-23.4375,-28.80859375,-125.0,-28.3203125
0.90625,-6.34765625,-29.78515625,120.60546875,-9.27734375
0.91015625,-17.578125,-28.3203125,672.8515625,-7.32421875
0.9140625,-25.390625,-29.296875,-59.5703125,-23.92578125
0.91796875,-30.2734375,-26.85546875,-593.75,-34.66796875
0.921875,-36.62109375,-27.34375,-60.546875,-24.4140625
0.92578125,-33.69140625,-37.109375,-119.62890625,-20.01953125
0.9296875,-41.9921875,-40.0390625,-204.58984375,-16.11328125
0.93359375,-43.9453125,-33.69140625,-139.6484375,-24.4140625
0.9375,-25.87890625,-32.71484375,251.953125,-10.25390625
0.94140625,-20.01953125,-34.66796875,238.76953125,0.9765625
0.9453125,-35.15625,-35.64453125,-394.53125,-29.296875
0.94921875,-25.87890625,-34.1796875,-248.53515625,-32.71484375
0.953125,-25.390625,-33.203125,-56.15234375,-23.92578125
0.95703125,-26.3671875,-31.73828125,479.4921875,-20.99609375
0.9609375,-32.2265625,-38.0859375,240.72265625,-26.85546875
0.96484375,-49.31640625,-36.62109375,-587.40234375,-48.33984375
0.96875,-34.66796875,-32.71484375,-342.28515625,-47.36328125
0.97265625,-38.57421875,-36.1328125,-149.4140625,-22.94921875
0.9765625,-38.57421875,-29.78515625,169.921875,-10.7421875
0.98046875,-18.06640625,-28.80859375,500.0,-41.9921875
0.984375,-18.06640625,-33.69140625,-153.80859375,-64.94140625
0.98828125,-22.4609375,-31.73828125,-549.8046875,-40.0390625
0.9921875,-21.484375,-24.90234375,-508.7890625,-40.0390625
0.99609375,-18.06640625,-21.97265625,139.6484375,-47.8515625
1.0,-34.66796875,-27.83203125,571.2890625,-45.8984375
1.00390625,-41.015625,-33.69140625,447.75390625,-32.71484375
1.0078125,-34.66796875,-34.1796875,135.25390625,-16.11328125
1.01171875,-36.1328125,-32.2265625,-459.9609375,-31.25
1.015625,-35.64453125,-35.64453125,-230.95703125,-38.57421875
1.01953125,-38.57421875,-39.0625,0.9765625,-40.0390625
1.0234375,-45.41015625,-33.69140625,-320.3125,-35.64453125
1.02734375,-36.1328125,-29.296875,-389.6484375,-23.92578125
1.03125,-42.48046875,-34.66796875,-112.3046875,-32.71484375
1.03515625,-39.55078125,-35.15625,-60.546875,-33.69140625
1.0390625,-21.97265625,-30.2734375,-107.421875,-21.484375
1.04296875,-17.08984375,-31.25,-80.078125,-21.97265625
1.046875,-24.4140625,-39.55078125,130.37109375,-32.2265625
1.05078125,-22.94921875,-36.62109375,575.68359375,-24.90234375
1.0546875,-14.16015625,-30.2734375,604.00390625,-10.25390625
1.05859375,-40.0390625,-36.62109375,60.05859375,-18.06640625
1.0625,-52.24609375,-41.015625,-358.3984375,-33.69140625
1.06640625,-33.203125,-39.55078125,-429.19921875,-22.94921875
1.0703125,-44.43359375,-34.1796875,-459.47265625,-29.78515625
1.07421875,-39.0625,-27.83203125,214.84375,-30.76171875
1.078125,-38.0859375,-35.64453125,81.54296875,-40.0390625
1.08203125,-40.52734375,-33.203125,-479.00390625,-52.24609375
1.0859375,-26.85546875,-23.92578125,-611.81640625,-37.109375
1.08984375,-33.203125,-30.76171875,-82.51953125,-15.13671875
1.09375,-41.015625,-35.64453125,347.65625,-20.99609375
1.09765625,-36.62109375,-32.2265625,490.234375,-58.59375
1.1015625,-27.83203125,-34.66796875,583.0078125,-61.03515625
1.10546875,-23.92578125,-36.1328125,-338.37890625,-39.55078125
1.109375,-20.99609375,-29.296875,-475.5859375,-38.57421875
1.11328125,-28.3203125,-27.34375,68.359375,-28.80859375
1.1171875,-41.015625,-34.66796875,-308.10546875,-31.73828125
1.12109375,-31.25,-34.1796875,-344.23828125,-26.85546875
1.125,-29.78515625,-30.2734375,95.703125,-12.6953125
1.12890625,-37.59765625,-34.1796875,-43.45703125,-26.3671875
1.1328125,-35.64453125,-31.73828125,-169.43359375,-38.0859375
1.13671875,-37.59765625,-30.76171875,-97.16796875,-42.96875
1.140625,-35.64453125,-28.80859375,206.0546875,-30.76171875
1.14453125,-31.25,-29.296875,796.38671875,-27.34375
1.1484375,-35.64453125,-30.76171875,154.296875,-44.43359375
1.15234375,-49.8046875,-24.90234375,-625.9765625,-47.36328125
1.15625,-45.41015625,-27.34375,-283.69140625,-21.97265625
1.16015625,-40.0390625,-31.25,-61.5234375,-20.5078125
1.1640625,-37.59765625,-33.203125,-366.2109375,-36.62109375
1.16796875,-30.76171875,-33.69140625,368.65234375,-33.203125
1.171875,-36.1328125,-32.2265625,808.10546875,-40.0390625
1.17578125,-44.43359375,-33.69140625,-232.421875,-60.05859375
1.1796875,-33.69140625,-32.2265625,-367.67578125,-54.19921875
1.18359375,-40.52734375,-32.71484375,-379.8828125,-49.31640625
1.1875,-49.8046875,-33.69140625,-394.04296875,-51.26953125
1.19140625,-32.71484375,-27.83203125,551.26953125,-28.80859375
1.1953125,-31.25,-26.85546875,339.84375,-27.83203125
1.19921875,-39.0625,-27.83203125,-383.30078125,-42.96875
1.203125,-35.15625,-25.87890625,-145.01953125,-44.43359375
1.20703125,-33.69140625,-28.3203125,128.41796875,-35.15625
1.2109375,-29.78515625,-31.25,-143.5546875,-25.87890625
1.21484375,-27.83203125,-35.15625,-163.57421875,-25.390625
1.21875,-22.4609375,-35.15625,166.50390625,-23.4375
1.22265625,-15.625,-31.25,75.68359375,-36.62109375
1.2265625,-33.69140625,-33.203125,-274.4140625,-47.36328125
1.23046875,-41.015625,-37.109375,94.23828125,-45.41015625
1.234375,-36.62109375,-34.66796875,25.87890625,-50.29296875
1.23828125,-38.0859375,-27.83203125,410.64453125,-42.48046875
1.2421875,-55.17578125,-29.78515625,154.296875,-47.8515625
1.24609375,-52.24609375,-29.296875,-615.72265625,-55.6640625
1.25,-33.69140625,-27.34375,-190.4296875,-41.9921875
1.25390625,-23.92578125,-30.76171875,-128.41796875,-39.0625
1.2578125,-24.90234375,-26.3671875,-48.33984375,-27.83203125
1.26171875,-35.64453125,-20.01953125,629.8828125,-22.94921875
1.265625,-53.22265625,-22.4609375,20.5078125,-39.0625
1.26953125,-47.8515625,-29.296875,-450.68359375,-27.83203125
1.2734375,-36.1328125,-29.78515625,-438.4765625,-22.4609375
1.27734375,-33.203125,-22.94921875,-231.4453125,-30.2734375
1.28125,-29.78515625,-23.92578125,202.1484375,-28.3203125
1.28515625,-35.64453125,-32.71484375,625.9765625,-23.92578125
1.2890625,-34.1796875,-31.25,426.26953125,-15.13671875
1.29296875,-29.78515625,-30.76171875,-195.80078125,-20.5078125
1.296875,-38.57421875,-32.71484375,-440.91796875,-35.15625
1.30078125,-39.0625,-33.203125,-315.4296875,-31.25
1.3046875,-43.45703125,-32.71484375,-362.3046875,-19.04296875
1.30859375,-44.921875,-32.71484375,-50.78125,-17.08984375
1.3125,-54.19921875,-35.64453125,135.7421875,-20.99609375
1.31640625,-61.5234375,-35.64453125,92.7734375,-24.90234375
1.3203125,-56.640625,-36.1328125,-250.9765625,-35.64453125
1.32421875,-49.8046875,-37.109375,-270.99609375,-19.53125
1.328125,-40.52734375,-30.76171875,74.21875,-15.13671875
1.33203125,-40.0390625,-29.296875,534.66796875,-32.71484375
1.3359375,-34.1796875,-32.2265625,367.67578125,-23.4375
1.33984375,-18.5546875,-30.2734375,-580.078125,-27.34375
1.34375,-17.578125,-26.3671875,-299.31640625,-28.80859375
1.34765625,-8.7890625,-30.2734375,242.1875,-20.01953125
1.3515625,-16.11328125,-31.25,-351.5625,-29.296875
1.35546875,-17.578125,-20.5078125,21.97265625,-13.18359375
1.359375,-30.76171875,-27.83203125,-10.25390625,-6.34765625
1.36328125,-49.31640625,-36.62109375,-390.13671875,-20.99609375
1.3671875,-41.9921875,-32.2265625,-507.32421875,-33.203125
1.37109375,-40.52734375,-32.71484375,-411.1328125,-11.23046875
1.375,-30.76171875,-28.80859375,147.94921875,9.765625
1.37890625,-20.99609375,-23.92578125,702.63671875,-12.20703125
1.3828125,-28.3203125,-29.296875,360.3515625,-32.71484375
1.38671875,-25.390625,-34.1796875,-425.29296875,-25.390625
1.390625,-19.53125,-33.69140625,-242.67578125,-11.23046875
1.39453125,-15.625,-31.25,-87.40234375,-23.92578125
1.3984375,-9.765625,-32.71484375,-513.671875,-34.1796875
1.40234375,-9.27734375,-34.66796875,-120.1171875,-28.3203125
1.40625,-22.4609375,-40.0390625,734.86328125,-37.59765625
1.41015625,-47.36328125,-39.0625,-38.57421875,-55.6640625
1.4140625,-41.015625,-34.1796875,-576.66015625,-45.8984375
1.41796875,-27.34375,-35.64453125,148.4375,-38.57421875
1.421875,-34.1796875,-41.015625,282.71484375,-29.296875
1.42578125,-23.4375,-38.0859375,272.94921875,-21.97265625
1.4296875,-3.90625,-35.15625,496.58203125,-12.20703125
1.43359375,-25.390625,-39.0625,-458.0078125,-26.85546875
1.4375,-46.38671875,-32.71484375,-624.0234375,-40.0390625
1.44140625,-37.59765625,-30.76171875,-240.234375,-38.0859375
1.4453125,-37.59765625,-32.2265625,-207.51953125,-57.12890625
1.44921875,-46.875,-25.87890625,460.9375,-58.59375
1.453125,-48.828125,-21.97265625,27.34375,-61.5234375
1.45703125,-37.109375,-23.92578125,-511.71875,-59.08203125
1.4609375,-35.64453125,-25.87890625,-217.7734375,-52.24609375
1.46484375,-35.64453125,-26.3671875,392.08984375,-68.84765625
1.46875,-43.9453125,-31.25,-33.203125,-71.2890625
1.47265625,-52.734375,-26.85546875,193.359375,-64.453125
1.4765625,-44.921875,-25.390625,-9.27734375,-83.49609375
1.48046875,-49.31640625,-29.78515625,-672.36328125,-81.0546875
1.484375,-51.26953125,-29.78515625,-246.09375,-62.5
1.48828125,-40.0390625,-34.66796875,-55.6640625,-52.24609375
1.4921875,-39.55078125,-31.73828125,-274.4140625,-49.8046875
1.49609375,-43.45703125,-24.4140625,20.5078125,-47.8515625
1.5,-56.640625,-32.71484375,276.3671875,-52.734375
1.50390625,-44.43359375,-35.64453125,-156.25,-60.05859375
1.5078125,-34.66796875,-30.76171875,-234.375,-52.734375
1.51171875,-38.57421875,-31.73828125,270.01953125,-39.55078125
1.515625,-44.921875,-25.87890625,225.5859375,-42.48046875
1.51953125,-32.71484375,-23.4375,559.5703125,-37.59765625
1.5234375,-26.85546875,-27.83203125,375.48828125,-28.3203125
1.52734375,-27.83203125,-24.90234375,-337.890625,-37.109375
1.53125,-36.1328125,-23.4375,-374.51171875,-58.10546875
1.53515625,-52.734375,-28.3203125,-326.66015625,-57.6171875
1.5390625,-49.8046875,-30.76171875,-68.359375,-39.55078125
1.54296875,-45.41015625,-30.2734375,630.37109375,-22.94921875
1.546875,-45.41015625,-31.25,42.48046875,-24.90234375
1.55078125,-39.0625,-31.25,-736.81640625,-50.29296875
1.5546875,-26.85546875,-30.76171875,-571.77734375,-40.52734375
1.55859375,-20.01953125,-35.64453125,-47.36328125,-18.5546875
1.5625,-35.15625,-32.71484375,44.43359375,-11.71875
1.56640625,-35.15625,-31.73828125,473.6328125,-20.5078125
1.5703125,-15.625,-32.2265625,-18.06640625,-37.109375
1.57421875,-24.90234375,-30.76171875,-756.8359375,-25.87890625
1.578125,-51.26953125,-34.66796875,-89.84375,-18.06640625
1.58203125,-37.109375,-34.66796875,372.55859375,-30.2734375
1.5859375,-32.2265625,-32.2265625,-265.625,-42.96875
1.58984375,-54.19921875,-36.1328125,-427.734375,-47.36328125
1.59375,-40.0390625,-41.015625,50.78125,-26.85546875
1.59765625,-30.76171875,-35.64453125,-54.6875,-35.15625
1.6015625,-30.2734375,-35.15625,-372.55859375,-47.8515625
1.60546875,-26.85546875,-40.0390625,-195.80078125,-25.87890625
1.609375,-38.0859375,-38.57421875,79.58984375,-10.7421875
1.61328125,-39.0625,-38.0859375,697.265625,-11.23046875
1.6171875,-41.9921875,-38.57421875,535.64453125,-23.4375
1.62109375,-44.921875,-37.109375,-381.8359375,-29.296875
1.625,-30.2734375,-39.55078125,-608.88671875,-24.4140625
1.62890625,-16.6015625,-39.0625,-130.37109375,-20.01953125
1.6328125,-29.296875,-40.0390625,-13.18359375,-27.83203125
1.63671875,-25.390625,-42.48046875,401.3671875,-18.06640625
1.640625,-14.6484375,-39.55078125,533.69140625,-7.32421875
1.64453125,-18.5546875,-33.203125,-297.8515625,-25.87890625
1.6484375,-33.203125,-37.59765625,-567.87109375,-31.73828125
1.65234375,-40.52734375,-38.0859375,-203.61328125,-24.4140625
1.65625,-40.52734375,-40.52734375,-31.25,-20.99609375
1.66015625,-35.15625,-43.45703125,509.765625,-17.08984375
1.6640625,-36.62109375,-41.9921875,210.9375,-26.3671875
1.66796875,-37.109375,-44.43359375,-613.28125,-16.11328125
1.671875,-30.2734375,-47.8515625,-179.19921875,-2.44140625
1.67578125,-40.0390625,-53.7109375,-11.71875,-11.71875
1.6796875,-43.9453125,-51.26953125,-420.8984375,-25.87890625
1.68359375,-42.48046875,-43.9453125,-44.921875,-32.2265625
1.6875,-33.203125,-40.0390625,232.421875,-34.1796875
1.69140625,-18.06640625,-38.57421875,7.8125,-36.1328125
1.6953125,-16.11328125,-41.9921875,-247.55859375,-40.0390625
1.69921875,-26.3671875,-39.55078125,311.5234375,-32.2265625
1.703125,-33.69140625,-41.015625,285.64453125,-24.4140625
1.70703125,-32.71484375,-43.45703125,439.453125,-22.94921875
1.7109375,-38.57421875,-42.96875,104.4921875,-31.73828125
1.71484375,-28.80859375,-39.55078125,-755.859375,-40.52734375
1.71875,-17.578125,-40.0390625,-149.90234375,-28.3203125
1.72265625,-30.2734375,-45.8984375,16.6015625,-14.16015625
1.7265625,-50.29296875,-46.875,-268.5546875,-26.85546875
1.73046875,-51.7578125,-45.41015625,126.46484375,-43.9453125
1.734375,-44.921875,-43.9453125,-89.35546875,-47.36328125
1.73828125,-46.875,-36.62109375,-341.796875,-35.15625
1.7421875,-39.0625,-30.2734375,-236.328125,-21.97265625
1.74609375,-21.97265625,-35.15625,-139.6484375,-18.5546875
1.75,-20.5078125,-36.62109375,99.609375,-26.3671875
1.75390625,-40.52734375,-30.76171875,711.42578125,-20.5078125
1.7578125,-33.69140625,-28.3203125,521.97265625,-14.16015625
1.76171875,-24.4140625,-32.2265625,-426.26953125,-28.3203125
1.765625,-41.50390625,-39.55078125,-621.58203125,-25.87890625
1.76953125,-20.5078125,-36.62109375,-160.64453125,-11.23046875
1.7734375,-21.97265625,-41.50390625,-266.11328125,-18.06640625
1.77734375,-37.109375,-41.015625,-168.9453125,-21.97265625
1.78125,-31.25,-36.62109375,120.60546875,-28.80859375
1.78515625,-28.3203125,-32.2265625,39.0625,-32.2265625
1.7890625,-41.015625,-27.34375,-131.8359375,-29.296875
1.79296875,-46.875,-30.76171875,36.62109375,-37.109375
1.796875,-41.9921875,-35.64453125,300.78125,-42.96875
1.80078125,-30.76171875,-36.1328125,524.4140625,-35.64453125
1.8046875,-32.2265625,-39.0625,-124.0234375,-21.97265625
1.80859375,-45.8984375,-34.66796875,-467.7734375,-5.37109375
1.8125,-37.59765625,-32.71484375,-45.41015625,-4.39453125
1.81640625,-25.390625,-34.1796875,586.9140625,-16.11328125
1.8203125,-27.34375,-32.71484375,-85.9375,-22.4609375
1.82421875,-27.34375,-32.2265625,-79.58984375,-4.39453125
1.828125,-39.55078125,-33.69140625,40.52734375,-3.41796875
1.83203125,-41.9921875,-32.2265625,-416.015625,-21.97265625
1.8359375,-31.25,-30.76171875,-416.50390625,-15.625
1.83984375,-27.34375,-36.1328125,-47.8515625,-4.8828125
1.84375,-31.73828125,-41.50390625,434.08203125,-0.48828125
1.84765625,-41.015625,-39.55078125,709.9609375,-20.99609375
1.8515625,-38.57421875,-40.0390625,-266.11328125,-47.8515625
1.85546875,-38.0859375,-41.9921875,-739.2578125,-39.0625
1.859375,-50.78125,-42.48046875,-200.1953125,-24.4140625
1.86328125,-54.6875,-41.50390625,-253.41796875,-23.4375
1.8671875,-52.734375,-36.62109375,-387.20703125,-15.13671875
1.87109375,-44.921875,-40.52734375,-152.34375,-9.27734375
1.875,-33.69140625,-38.0859375,508.7890625,-3.90625
1.87890625,-33.69140625,-32.71484375,168.9453125,-4.39453125
1.8828125,-37.109375,-35.15625,-471.19140625,-14.16015625
1.88671875,-29.78515625,-28.3203125,-91.796875,-27.83203125
1.890625,-35.15625,-28.80859375,145.01953125,-12.20703125
1.89453125,-45.41015625,-35.64453125,574.21875,-0.9765625
1.8984375,-36.62109375,-37.59765625,211.9140625,-11.71875
1.90234375,-34.66796875,-36.1328125,-595.703125,-19.04296875
1.90625,-36.1328125,-33.203125,-178.7109375,-5.37109375
1.91015625,-41.015625,-39.0625,55.6640625,-6.34765625
1.9140625,-43.45703125,-39.55078125,42.96875,-40.52734375
1.91796875,-31.25,-34.1796875,316.40625,-46.38671875
1.921875,-38.57421875,-41.50390625,-131.34765625,-47.36328125
1.92578125,-47.36328125,-46.38671875,-602.5390625,-39.0625
1.9296875,-43.45703125,-36.1328125,-452.1484375,-29.296875
1.93359375,-38.57421875,-38.0859375,239.2578125,-26.3671875
1.9375,-40.52734375,-39.0625,162.109375,-33.69140625
1.94140625,-24.90234375,-34.66796875,416.50390625,-41.015625
1.9453125,-17.08984375,-38.57421875,251.953125,-27.83203125
1.94921875,-39.55078125,-43.45703125,-823.73046875,-51.7578125
1.953125,-43.9453125,-40.52734375,-255.37109375,-51.7578125
1.95703125,-46.38671875,-36.62109375,26.3671875,-34.66796875
1.9609375,-39.55078125,-36.1328125,-441.89453125,-32.2265625
1.96484375,-32.2265625,-35.64453125,-78.61328125,-44.43359375
1.96875,-52.24609375,-37.109375,90.8203125,-63.4765625
1.97265625,-36.1328125,-38.0859375,-30.2734375,-69.3359375
1.9765625,-37.109375,-35.64453125,-266.11328125,-65.4296875
1.98046875,-47.36328125,-28.3203125,44.921875,-50.29296875
1.984375,-42.48046875,-25.87890625,292.96875,-66.40625
1.98828125,-35.64453125,-22.4609375,469.23828125,-70.3125
1.9921875,-27.34375,-20.5078125,587.890625,-51.7578125
1.99609375,-29.78515625,-25.390625,-261.23046875,-75.68359375
2.0,-18.5546875,-24.4140625,-700.1953125,-81.0546875
2.00390625,-6.8359375,-19.53125,-349.609375,-47.8515625
2.0078125,-9.765625,-22.4609375,-345.703125,-41.015625
2.01171875,-14.6484375,-24.90234375,302.734375,-54.19921875
2.015625,-10.25390625,-22.4609375,143.5546875,-67.3828125
2.01953125,-16.6015625,-28.3203125,-313.4765625,-68.359375
2.0234375,-21.97265625,-24.4140625,-395.99609375,-60.05859375
2.02734375,-8.30078125,-21.97265625,-189.453125,-52.24609375
2.03125,4.8828125,-24.4140625,171.38671875,-54.6875
2.03515625,-18.5546875,-21.484375,572.75390625,-50.29296875
2.0390625,-20.5078125,-19.53125,499.0234375,-31.25
2.04296875,-11.71875,-17.08984375,-452.63671875,-33.203125
2.046875,-18.5546875,-25.87890625,-421.38671875,-46.875
2.05078125,-20.99609375,-32.2265625,349.12109375,-33.203125
2.0546875,-17.08984375,-32.71484375,-208.984375,-29.78515625
2.05859375,-19.53125,-33.203125,-522.4609375,-35.64453125
2.0625,-26.3671875,-35.64453125,-20.01953125,-44.43359375
2.06640625,-41.015625,-33.203125,-94.7265625,-53.22265625
2.0703125,-58.10546875,-34.66796875,-234.86328125,-54.19921875
2.07421875,-44.921875,-34.1796875,-118.1640625,-34.66796875
2.078125,-23.92578125,-32.71484375,-23.4375,-32.2265625
2.08203125,-29.296875,-33.203125,610.83984375,-45.8984375
2.0859375,-36.62109375,-41.50390625,113.76953125,-42.96875
2.08984375,-27.83203125,-38.57421875,-457.51953125,-33.69140625
2.09375,-27.83203125,-32.2265625,118.1640625,-23.4375
2.09765625,-15.625,-32.71484375,-125.9765625,-34.1796875
2.1015625,-7.32421875,-28.80859375,-422.8515625,-35.15625
2.10546875,-16.11328125,-32.2265625,579.58984375,-9.765625
2.109375,-16.11328125,-36.62109375,928.7109375,-8.30078125
2.11328125,-16.6015625,-36.1328125,-444.3359375,-23.92578125
2.1171875,-30.76171875,-30.76171875,-842.28515625,-26.3671875
2.12109375,-20.01953125,-29.78515625,-214.35546875,-22.4609375
2.125,-35.64453125,-28.80859375,81.0546875,-35.15625
2.12890625,-62.98828125,-31.73828125,537.109375,-45.41015625
2.1328125,-54.19921875,-34.1796875,139.16015625,-55.6640625
2.13671875,-46.38671875,-30.76171875,-408.203125,-59.5703125
2.140625,-37.109375,-30.76171875,-116.2109375,-45.8984375
2.14453125,-25.390625,-24.90234375,-155.2734375,-35.64453125
2.1484375,-32.71484375,-29.78515625,-436.03515625,-45.41015625
2.15234375,-56.640625,-37.59765625,-232.91015625,-41.015625
2.15625,-60.546875,-37.109375,222.16796875,-20.5078125
2.16015625,-53.7109375,-40.52734375,109.375,-31.25
2.1640625,-41.9921875,-37.59765625,-345.21484375,-45.8984375
2.16796875,-34.66796875,-35.64453125,137.6953125,-35.64453125
2.171875,-35.15625,-40.52734375,104.98046875,-27.34375
2.17578125,-33.69140625,-36.1328125,391.11328125,-24.90234375
2.1796875,-37.109375,-31.73828125,-146.97265625,-25.87890625
2.18359375,-36.1328125,-33.203125,-742.1875,-39.55078125
2.1875,-31.25,-31.25,-116.2109375,-22.94921875
2.19140625,-40.0390625,-34.66796875,78.61328125,-10.25390625
2.1953125,-33.69140625,-39.0625,-110.83984375,-20.99609375
2.19921875,-24.4140625,-41.50390625,235.83984375,-37.109375
2.203125,-41.9921875,-41.015625,5.37109375,-36.62109375
2.20703125,-40.0390625,-35.64453125,-291.015625,-19.04296875
2.2109375,-37.59765625,-33.69140625,-264.16015625,-20.5078125
2.21484375,-41.50390625,-36.1328125,-191.89453125,-30.76171875
2.21875,-41.50390625,-40.0390625,39.0625,-25.390625
2.22265625,-41.015625,-41.015625,552.734375,-21.97265625
2.2265625,-36.1328125,-36.1328125,613.28125,-12.20703125
2.23046875,-39.55078125,-35.64453125,-362.3046875,-21.97265625
2.234375,-42.96875,-35.64453125,-785.15625,-39.0625
2.23828125,-37.59765625,-34.1796875,-335.9375,-28.80859375
2.2421875,-45.41015625,-38.57421875,-76.171875,-46.38671875
2.24609375,-47.8515625,-37.59765625,-161.1328125,-49.31640625
2.25,-29.78515625,-35.64453125,-157.71484375,-41.015625
2.25390625,-33.69140625,-39.55078125,41.015625,-49.31640625
2.2578125,-38.0859375,-44.43359375,-244.140625,-44.921875
2.26171875,-34.1796875,-44.921875,-53.7109375,-37.59765625
2.265625,-33.69140625,-46.38671875,222.65625,-44.43359375
2.26953125,-30.76171875,-42.96875,603.02734375,-37.59765625
2.2734375,-31.25,-38.0859375,476.07421875,-26.3671875
2.27734375,-24.4140625,-40.0390625,-476.5625,-26.85546875
2.28125,-10.25390625,-33.203125,-219.23828125,-6.34765625
2.28515625,-32.2265625,-29.296875,367.67578125,12.6953125
2.2890625,-41.9921875,-34.1796875,-213.37890625,2.44140625
2.29296875,-45.41015625,-32.2265625,182.6171875,-1.953125
2.296875,-42.96875,-34.66796875,110.3515625,-10.25390625
2.30078125,-32.71484375,-35.64453125,-328.61328125,-18.5546875
2.3046875,-39.0625,-33.69140625,-416.015625,0.9765625
2.30859375,-36.1328125,-32.2265625,-255.37109375,17.08984375
2.3125,-36.1328125,-28.3203125,120.1171875,-0.9765625
2.31640625,-29.78515625,-28.80859375,489.2578125,6.34765625
2.3203125,-14.16015625,-32.2265625,388.18359375,24.4140625
2.32421875,-23.4375,-36.62109375,-483.88671875,10.25390625
2.328125,-24.90234375,-40.0390625,-300.78125,-14.16015625
2.33203125,-20.99609375,-37.109375,-109.375,-24.90234375
2.3359375,-31.73828125,-36.62109375,-599.12109375,-32.2265625
2.33984375,-33.69140625,-33.69140625,-113.28125,-20.99609375
2.34375,-31.73828125,-32.2265625,748.046875,6.8359375
2.34765625,-42.48046875,-41.50390625,248.046875,-14.16015625
2.3515625,-49.8046875,-39.0625,-343.75,-37.59765625
2.35546875,-46.38671875,-37.59765625,-167.96875,-24.90234375
2.359375,-41.9921875,-42.96875,-123.046875,-20.99609375
2.36328125,-38.0859375,-43.45703125,561.03515625,-12.20703125
2.3671875,-33.69140625,-47.36328125,156.25,-22.4609375
2.37109375,-30.76171875,-41.50390625,-667.96875,-22.4609375
2.375,-40.52734375,-40.52734375,-125.48828125,10.25390625
2.37890625,-50.78125,-38.57421875,-172.8515625,-1.46484375
2.3828125,-47.36328125,-37.109375,-393.06640625,-15.625
2.38671875,-36.1328125,-40.0390625,568.359375,9.765625
2.390625,-31.73828125,-40.52734375,355.46875,12.6953125
2.39453125,-46.875,-44.43359375,-423.33984375,9.765625
2.3984375,-45.41015625,-43.9453125,-398.4375,9.27734375
2.40234375,-27.83203125,-35.15625,214.84375,0.48828125
2.40625,-29.78515625,-37.59765625,18.5546875,-7.8125
2.41015625,-32.71484375,-39.55078125,446.2890625,-6.8359375
2.4140625,-29.296875,-41.50390625,144.04296875,-2.44140625
2.41796875,-35.15625,-40.0390625,-709.47265625,-9.765625
2.421875,-40.0390625,-39.55078125,-123.53515625,-5.859375
2.42578125,-47.36328125,-44.43359375,-79.58984375,14.16015625
2.4296875,-54.19921875,-44.43359375,-636.71875,0.0
2.43359375,-32.2265625,-43.9453125,-256.34765625,-1.953125
2.4375,-31.25,-41.9921875,357.421875,9.765625
2.44140625,-35.15625,-33.69140625,-20.5078125,-6.8359375
2.4453125,-39.55078125,-31.73828125,-423.828125,-13.671875
2.44921875,-43.45703125,-37.59765625,0.48828125,-7.32421875
2.453125,-40.52734375,-40.0390625,334.47265625,-1.46484375
2.45703125,-43.9453125,-42.48046875,633.30078125,-0.9765625
2.4609375,-45.41015625,-39.55078125,411.1328125,-7.32421875
2.46484375,-48.33984375,-36.1328125,-227.5390625,-23.92578125
2.46875,-49.8046875,-36.1328125,-270.5078125,-27.34375
2.47265625,-45.8984375,-40.0390625,-156.73828125,-26.3671875
2.4765625,-42.48046875,-40.52734375,-94.7265625,-36.62109375
2.48046875,-43.9453125,-33.203125,232.91015625,-16.11328125
2.484375,-51.7578125,-33.203125,-62.5,-10.25390625
2.48828125,-45.8984375,-29.78515625,-358.3984375,-18.06640625
2.4921875,-39.55078125,-34.66796875,-448.73046875,-14.6484375
2.49609375,-48.33984375,-43.45703125,-222.65625,-25.87890625
2.5,-50.78125,-39.0625,93.26171875,-31.25
2.50390625,-46.875,-34.66796875,632.32421875,-6.8359375
2.5078125,-28.80859375,-35.15625,160.15625,-1.46484375
2.51171875,-27.83203125,-37.59765625,-688.4765625,-30.76171875
2.515625,-42.96875,-35.15625,-303.7109375,-53.22265625
2.51953125,-23.92578125,-28.80859375,333.49609375,-37.109375
2.5234375,-17.578125,-33.203125,-266.11328125,-40.0390625
2.52734375,-28.3203125,-32.71484375,-428.22265625,-53.7109375
2.53125,-20.99609375,-24.4140625,187.01171875,-38.57421875
2.53515625,-24.4140625,-27.34375,-118.1640625,-40.52734375
2.5390625,-41.9921875,-28.80859375,-536.62109375,-42.96875
2.54296875,-32.2265625,-28.3203125,-5.37109375,-30.76171875
2.546875,-27.83203125,-31.73828125,295.41015625,-39.0625
2.55078125,-40.0390625,-27.34375,625.48828125,-55.17578125
2.5546875,-43.45703125,-29.296875,549.8046875,-46.38671875
2.55859375,-24.90234375,-29.296875,-366.69921875,-27.83203125
2.5625,-17.08984375,-26.3671875,-286.1328125,-24.90234375
2.56640625,-27.83203125,-29.296875,-95.703125,-31.73828125
2.5703125,-22.4609375,-27.83203125,-340.8203125,-32.71484375
2.57421875,-29.296875,-25.87890625,510.7421875,-39.55078125
2.578125,-27.34375,-31.25,572.75390625,-41.50390625
2.58203125,-8.7890625,-36.1328125,-518.06640625,-50.78125
2.5859375,-8.30078125,-33.69140625,-668.9453125,-52.734375
2.58984375,-21.97265625,-34.66796875,-209.9609375,-32.71484375
2.59375,-35.64453125,-37.59765625,97.65625,-29.296875
2.59765625,-29.296875,-36.62109375,544.921875,-29.78515625
2.6015625,-24.4140625,-36.1328125,219.23828125,-25.87890625
2.60546875,-27.83203125,-37.109375,-416.015625,-21.484375
2.609375,-25.390625,-37.109375,-218.75,-14.16015625
2.61328125,-24.4140625,-37.59765625,-144.53125,-31.25
2.6171875,-34.66796875,-35.64453125,-369.62890625,-41.50390625
2.62109375,-30.2734375,-35.15625,-268.5546875,-15.625
2.625,-40.0390625,-37.59765625,-11.23046875,1.46484375
2.62890625,-49.31640625,-35.15625,120.60546875,-7.8125
2.6328125,-46.38671875,-35.15625,-120.60546875,-32.71484375
2.63671875,-43.9453125,-37.109375,511.23046875,-30.76171875
2.640625,-23.92578125,-40.52734375,277.83203125,-18.5546875
2.64453125,-23.4375,-36.62109375,248.53515625,-19.04296875
2.6484375,-41.015625,-37.59765625,398.4375,-38.0859375
2.65234375,-49.31640625,-40.0390625,-688.4765625,-55.17578125
2.65625,-55.17578125,-34.66796875,-473.14453125,-64.453125
2.66015625,-46.875,-34.66796875,0.0,-66.89453125
2.6640625,-44.43359375,-33.69140625,-11.71875,-63.4765625
2.66796875,-35.15625,-37.109375,509.27734375,-50.29296875
2.671875,-36.1328125,-42.96875,-176.26953125,-55.6640625
2.67578125,-45.41015625,-41.015625,-554.19921875,-57.12890625
2.6796875,-42.96875,-34.1796875,-204.58984375,-69.82421875
2.68359375,-37.109375,-33.203125,-123.046875,-81.0546875
2.6875,-37.59765625,-36.1328125,62.5,-64.94140625
2.69140625,-39.55078125,-33.203125,548.828125,-58.59375
2.6953125,-41.50390625,-34.66796875,374.51171875,-70.80078125
2.69921875,-43.45703125,-37.59765625,-384.27734375,-99.609375
2.703125,-26.85546875,-39.0625,-562.98828125,-104.00390625
2.70703125,-33.203125,-37.59765625,-80.56640625,-78.61328125
2.7109375,-35.64453125,-28.3203125,-239.74609375,-68.84765625
2.71484375,-15.625,-29.296875,-287.109375,-77.1484375
2.71875,-34.66796875,-31.73828125,156.25,-84.47265625
2.72265625,-50.29296875,-34.1796875,-13.18359375,-75.1953125
2.7265625,-56.640625,-37.59765625,-5.859375,-67.3828125
2.73046875,-48.33984375,-32.71484375,-125.48828125,-77.63671875
2.734375,-34.1796875,-35.64453125,-179.6875,-79.1015625
2.73828125,-41.015625,-39.0625,599.12109375,-70.3125
2.7421875,-46.875,-39.55078125,266.6015625,-62.98828125
2.74609375,-57.6171875,-39.55078125,-639.6484375,-77.1484375
2.75,-57.12890625,-43.45703125,-290.52734375,-82.51953125
2.75390625,-37.59765625,-41.9921875,328.125,-83.984375
2.7578125,-19.53125,-33.203125,77.1484375,-96.6796875
2.76171875,-44.43359375,-28.80859375,203.61328125,-105.46875
2.765625,-56.640625,-35.15625,-152.34375,-114.74609375
2.76953125,-44.921875,-39.55078125,-512.6953125,-96.19140625
2.7734375,-53.7109375,-32.71484375,-342.7734375,-70.80078125
2.77734375,-49.31640625,-32.71484375,101.07421875,-53.7109375
2.78125,-45.41015625,-37.59765625,146.97265625,-48.828125
2.78515625,-37.59765625,-33.203125,618.65234375,-38.0859375
2.7890625,-22.4609375,-38.0859375,2.44140625,-44.43359375
2.79296875,-34.66796875,-35.64453125,-746.58203125,-66.40625
2.796875,-30.76171875,-32.71484375,88.37890625,-70.3125
2.80078125,-34.1796875,-33.69140625,-137.6953125,-75.68359375
2.8046875,-50.29296875,-31.25,-567.87109375,-64.94140625
2.80859375,-36.62109375,-34.66796875,-15.13671875,-31.73828125
2.8125,-38.0859375,-32.71484375,683.10546875,-24.90234375
2.81640625,-44.921875,-31.73828125,-0.9765625,-41.9921875
2.8203125,-39.55078125,-31.25,-517.08984375,-48.828125
2.82421875,-33.203125,-37.109375,-107.91015625,-34.66796875
2.828125,-36.62109375,-41.015625,-71.2890625,-42.96875
2.83203125,-46.38671875,-31.73828125,431.640625,-43.9453125
2.8359375,-45.8984375,-31.25,299.31640625,-34.1796875
2.83984375,-31.73828125,-34.1796875,-303.22265625,-26.3671875
2.84375,-22.94921875,-31.25,-208.0078125,-20.5078125
2.84765625,-40.0390625,-39.55078125,-334.9609375,-49.8046875
2.8515625,-50.29296875,-41.015625,-212.890625,-52.734375
2.85546875,-30.2734375,-32.2265625,569.3359375,-19.04296875
2.859375,-37.59765625,-35.64453125,84.9609375,-34.66796875
2.86328125,-46.38671875,-33.203125,-354.4921875,-50.78125
2.8671875,-32.2265625,-28.80859375,-409.66796875,-43.9453125
2.87109375,-37.109375,-31.25,154.78515625,-36.62109375
2.875,-47.8515625,-37.109375,174.31640625,-18.5546875
2.87890625,-46.38671875,-38.0859375,349.609375,-7.8125
2.8828125,-34.66796875,-37.59765625,426.26953125,-25.87890625
2.88671875,-48.828125,-36.62109375,-615.72265625,-33.69140625
2.890625,-47.8515625,-33.203125,-529.296875,5.859375
2.89453125,-40.0390625,-30.2734375,35.15625,10.7421875
2.8984375,-40.0390625,-27.34375,-116.2109375,-4.39453125
2.90234375,-43.45703125,-30.2734375,-163.0859375,-3.90625
2.90625,-53.22265625,-36.1328125,54.6875,-4.39453125
2.91015625,-39.0625,-28.3203125,38.0859375,-5.37109375
2.9140625,-32.2265625,-35.64453125,-385.25390625,-19.53125
2.91796875,-34.1796875,-38.0859375,-308.59375,-33.203125
2.921875,-35.15625,-30.76171875,233.88671875,-28.80859375
2.92578125,-33.203125,-34.1796875,735.3515625,-22.94921875
2.9296875,-38.0859375,-33.203125,378.41796875,-35.64453125
2.93359375,-39.0625,-29.78515625,-255.37109375,-40.52734375
2.9375,-34.66796875,-30.2734375,-119.140625,-22.94921875
2.94140625,-44.921875,-34.1796875,-125.9765625,-11.23046875
2.9453125,-50.78125,-38.0859375,-485.83984375,-15.13671875
2.94921875,-45.41015625,-35.15625,336.9140625,-12.6953125
2.953125,-31.25,-30.2734375,99.609375,-14.6484375
2.95703125,-32.2265625,-33.203125,-351.5625,-12.6953125
2.9609375,-37.59765625,-34.1796875,-186.03515625,-10.7421875
2.96484375,-37.59765625,-32.71484375,-179.19921875,-14.6484375
2.96875,-44.43359375,-35.15625,-106.4453125,-2.44140625
2.97265625,-39.55078125,-26.3671875,299.31640625,26.3671875
2.9765625,-33.69140625,-27.34375,604.00390625,41.015625
2.98046875,-24.90234375,-35.15625,-465.8203125,22.94921875
2.984375,-8.7890625,-28.3203125,-522.94921875,17.08984375
2.98828125,-9.27734375,-21.484375,183.10546875,35.15625
2.9921875,-13.18359375,-27.34375,-422.36328125,31.73828125
2.99609375,-15.13671875,-30.76171875,-195.3125,21.484375
3.0,-22.4609375,-27.34375,192.87109375,12.6953125
3.00390625,-27.83203125,-23.4375,-160.15625,4.8828125
3.0078125,-28.3203125,-31.73828125,-272.94921875,11.23046875
3.01171875,-21.484375,-36.1328125,69.3359375,29.78515625
3.015625,-42.48046875,-32.71484375,60.05859375,16.6015625
3.01953125,-44.43359375,-33.203125,551.26953125,22.4609375
3.0234375,-25.87890625,-37.59765625,117.1875,29.78515625
3.02734375,-33.203125,-41.50390625,-507.8125,24.4140625
3.03125,-34.66796875,-41.9921875,3.90625,20.01953125
3.03515625,-41.015625,-45.41015625,26.85546875,20.5078125
3.0390625,-45.41015625,-48.33984375,-269.53125,32.71484375
3.04296875,-45.41015625,-41.9921875,358.3984375,32.2265625
3.046875,-34.66796875,-40.0390625,480.95703125,27.34375
3.05078125,-14.6484375,-39.0625,-507.32421875,23.92578125
3.0546875,-21.97265625,-35.15625,-583.0078125,31.25
3.05859375,-35.64453125,-35.15625,-197.75390625,17.578125
3.0625,-31.73828125,-37.59765625,-15.13671875,-0.9765625
3.06640625,-30.2734375,-37.109375,534.66796875,0.9765625
3.0703125,-31.25,-38.57421875,20.5078125,-5.37109375
3.07421875,-28.3203125,-35.64453125,-478.02734375,-21.97265625
3.078125,-28.3203125,-30.2734375,-191.40625,-25.390625
3.08203125,-32.71484375,-31.73828125,-410.15625,-30.2734375
3.0859375,-44.43359375,-35.64453125,-283.69140625,-35.15625
3.08984375,-41.50390625,-38.57421875,145.99609375,-19.04296875
3.09375,-43.9453125,-38.57421875,290.52734375,-17.08984375
3.09765625,-40.52734375,-35.15625,39.0625,-31.73828125
3.1015625,-45.8984375,-33.203125,-211.9140625,-38.57421875
3.10546875,-34.1796875,-33.203125,519.04296875,-3.90625
3.109375,-44.43359375,-34.66796875,246.09375,5.37109375
3.11328125,-58.10546875,-34.66796875,231.4453125,0.0
3.1171875,-52.734375,-35.64453125,6.34765625,1.46484375
3.12109375,-61.5234375,-36.62109375,-727.5390625,-0.48828125
3.125,-47.36328125,-34.1796875,-365.72265625,24.4140625
3.12890625,-51.7578125,-33.203125,-240.72265625,9.27734375
3.1328125,-52.734375,-28.80859375,14.16015625,-21.484375
3.13671875,-30.2734375,-25.87890625,554.6875,-11.71875
3.140625,-33.69140625,-26.85546875,41.50390625,-12.20703125
3.14453125,-38.0859375,-25.87890625,-337.40234375,-23.4375
3.1484375,-35.15625,-32.2265625,-397.4609375,-25.87890625
3.15234375,-37.59765625,-35.15625,-115.234375,-10.7421875
3.15625,-31.73828125,-33.203125,149.4140625,1.953125
3.16015625,-41.015625,-39.0625,505.859375,-2.9296875
3.1640625,-55.17578125,-37.59765625,667.96875,0.9765625
3.16796875,-43.9453125,-34.66796875,-216.796875,-10.25390625
3.171875,-39.0625,-39.0625,-562.01171875,-18.06640625
3.17578125,-55.17578125,-40.52734375,-226.5625,-12.20703125
3.1796875,-54.19921875,-42.96875,-351.5625,-19.53125
3.18359375,-46.38671875,-43.9453125,-293.9453125,-21.484375
3.1875,-46.38671875,-40.52734375,24.90234375,-9.765625
3.19140625,-52.24609375,-34.66796875,143.5546875,-16.11328125
3.1953125,-58.10546875,-38.57421875,-300.78125,-30.76171875
3.19921875,-54.19921875,-40.52734375,-281.25,-25.87890625
3.203125,-40.52734375,-35.64453125,54.6875,-5.859375
3.20703125,-33.203125,-29.296875,722.16796875,11.71875
3.2109375,-30.2734375,-36.1328125,450.1953125,0.0
3.21484375,-34.66796875,-41.50390625,-398.4375,-40.52734375
3.21875,-48.33984375,-37.109375,-96.6796875,-46.38671875
3.22265625,-54.19921875,-42.96875,73.73046875,-16.11328125
3.2265625,-38.57421875,-44.921875,-323.73046875,-12.20703125
3.23046875,-43.9453125,-34.1796875,131.8359375,-37.59765625
3.234375,-57.6171875,-32.2265625,-95.21484375,-75.68359375
3.23828125,-50.29296875,-34.1796875,-501.46484375,-66.40625
3.2421875,-49.31640625,-34.1796875,-458.984375,-39.0625
3.24609375,-60.05859375,-41.50390625,-2.9296875,-47.36328125
3.25,-62.5,-37.109375,58.59375,-62.5
3.25390625,-54.6875,-30.76171875,371.09375,-45.41015625
3.2578125,-47.8515625,-36.62109375,574.21875,-29.296875
3.26171875,-55.17578125,-40.52734375,-354.4921875,-44.921875
3.265625,-54.19921875,-41.015625,-258.30078125,-44.43359375
3.26953125,-30.2734375,-39.0625,-75.68359375,-34.1796875
3.2734375,-22.94921875,-36.62109375,-281.25,-21.484375
3.27734375,-22.94921875,-33.203125,151.85546875,-12.20703125
3.28125,-23.92578125,-34.1796875,695.3125,-24.4140625
3.28515625,-35.15625,-37.59765625,-83.984375,-42.96875
3.2890625,-35.15625,-31.25,-591.30859375,-34.1796875
3.29296875,-24.90234375,-30.2734375,0.9765625,-20.5078125
3.296875,-23.92578125,-31.73828125,169.43359375,-25.87890625
3.30078125,-35.15625,-34.66796875,593.26171875,-25.87890625
3.3046875,-34.66796875,-38.0859375,-118.1640625,-20.99609375
3.30859375,-24.90234375,-34.1796875,-650.390625,-9.765625
3.3125,-28.80859375,-36.1328125,-149.90234375,-26.3671875
3.31640625,-27.83203125,-38.0859375,-214.84375,-52.24609375
3.3203125,-21.484375,-31.73828125,-264.16015625,-37.59765625
3.32421875,-18.5546875,-38.0859375,423.828125,-20.01953125
3.328125,-29.78515625,-41.50390625,124.0234375,-31.25
3.33203125,-35.15625,-41.9921875,-401.3671875,-46.38671875
3.3359375,-25.390625,-38.0859375,2.44140625,-29.296875
3.33984375,-25.390625,-31.25,256.34765625,-23.92578125
3.34375,-26.85546875,-38.57421875,-195.3125,-45.41015625
3.34765625,-31.73828125,-40.52734375,197.75390625,-51.26953125
3.3515625,-36.1328125,-41.9921875,-261.23046875,-49.31640625
3.35546875,-48.33984375,-47.8515625,-710.9375,-43.45703125
3.359375,-44.43359375,-46.38671875,-155.76171875,-45.41015625
3.36328125,-32.2265625,-35.64453125,51.7578125,-42.96875
3.3671875,-44.43359375,-35.64453125,-196.77734375,-46.875
3.37109375,-53.22265625,-42.48046875,-179.19921875,-59.5703125
3.375,-44.921875,-42.96875,29.78515625,-53.7109375
3.37890625,-30.2734375,-38.0859375,-134.765625,-43.9453125
3.3828125,-43.9453125,-38.0859375,-93.26171875,-46.875
3.38671875,-38.0859375,-41.9921875,64.94140625,-30.2734375
3.390625,-23.4375,-36.62109375,110.3515625,-15.625
3.39453125,-33.69140625,-37.109375,630.37109375,-21.97265625
3.3984375,-38.0859375,-40.0390625,445.80078125,-36.1328125
3.40234375,-35.64453125,-36.1328125,-219.7265625,-45.8984375
3.40625,-37.109375,-34.66796875,-473.14453125,-36.62109375
3.41015625,-38.0859375,-33.203125,-376.953125,-20.5078125
3.4140625,-33.69140625,-34.66796875,-273.92578125,-23.4375
3.41796875,-13.18359375,-31.73828125,500.48828125,-19.04296875
3.421875,-19.04296875,-30.76171875,200.1953125,-12.20703125
3.42578125,-33.69140625,-35.64453125,-404.296875,-9.765625
3.4296875,-33.203125,-32.71484375,-470.703125,-15.625
3.43359375,-40.0390625,-27.34375,-326.171875,-24.90234375
3.4375,-36.62109375,-29.78515625,101.07421875,-19.53125
3.44140625,-26.3671875,-24.90234375,695.80078125,-8.7890625
3.4453125,-45.41015625,-31.25,196.2890625,-28.80859375
3.44921875,-47.8515625,-39.55078125,-551.26953125,-54.6875
3.453125,-38.57421875,-34.1796875,-25.390625,-42.48046875
3.45703125,-34.66796875,-35.15625,451.171875,-37.59765625
3.4609375,-30.76171875,-34.1796875,-182.6171875,-37.59765625
3.46484375,-47.8515625,-34.1796875,-527.34375,-46.875
3.46875,-44.43359375,-36.1328125,-26.85546875,-43.45703125
3.47265625,-44.921875,-30.76171875,28.80859375,-33.69140625
3.4765625,-36.62109375,-31.25,-362.79296875,-24.4140625
3.48046875,-33.203125,-30.76171875,-244.140625,-30.76171875
3.484375,-42.48046875,-31.25,16.6015625,-40.0390625
3.48828125,-50.78125,-35.15625,458.49609375,-32.2265625
3.4921875,-54.6875,-35.64453125,476.07421875,-33.203125
3.49609375,-54.19921875,-38.0859375,-180.17578125,-41.9921875
3.5,-41.50390625,-35.64453125,-156.25,-49.8046875
3.50390625,-34.1796875,-33.203125,-279.78515625,-45.8984375
3.5078125,-40.52734375,-31.73828125,-433.59375,-25.390625
3.51171875,-32.2265625,-33.203125,345.703125,-41.9921875
3.515625,-27.34375,-34.1796875,417.96875,-67.87109375
3.51953125,-44.921875,-38.0859375,-321.2890625,-63.96484375
3.5234375,-31.73828125,-37.109375,-655.2734375,-56.640625
3.52734375,-12.6953125,-31.25,-64.453125,-40.52734375
3.53125,-36.62109375,-28.80859375,333.984375,-42.48046875
3.53515625,-32.2265625,-30.2734375,493.65234375,-51.26953125
3.5390625,-17.08984375,-25.390625,27.34375,-38.57421875
3.54296875,-17.08984375,-25.390625,-655.2734375,-28.3203125
3.546875,-37.109375,-28.3203125,-355.46875,-33.203125
3.55078125,-45.8984375,-26.3671875,-60.05859375,-42.48046875
3.5546875,-47.8515625,-34.1796875,-269.53125,-38.57421875
3.55859375,-48.828125,-35.15625,-98.6328125,-41.015625
3.5625,-50.78125,-32.2265625,140.625,-53.7109375
3.56640625,-55.17578125,-36.1328125,38.57421875,-54.6875
3.5703125,-39.55078125,-32.71484375,1.46484375,-41.9921875
3.57421875,-25.390625,-25.87890625,480.46875,-28.80859375
3.578125,-31.73828125,-32.2265625,-90.8203125,-28.80859375
3.58203125,-38.57421875,-34.66796875,64.94140625,-41.50390625
3.5859375,-31.73828125,-29.296875,528.3203125,-42.96875
3.58984375,-26.85546875,-28.80859375,-403.80859375,-37.109375
3.59375,-30.2734375,-28.3203125,-391.6015625,-24.90234375
3.59765625,-24.4140625,-21.97265625,-62.98828125,-27.83203125
3.6015625,-32.71484375,-24.4140625,-321.77734375,-34.66796875
3.60546875,-43.45703125,-34.1796875,231.4453125,-32.2265625
3.609375,-37.109375,-38.0859375,37.109375,-32.71484375
3.61328125,-45.41015625,-39.0625,-533.69140625,-37.109375
3.6171875,-41.015625,-41.50390625,-197.75390625,-44.43359375
3.62109375,-40.52734375,-36.62109375,161.62109375,-47.8515625
3.625,-48.828125,-35.64453125,245.1171875,-40.0390625
3.62890625,-44.43359375,-36.62109375,526.85546875,-47.36328125
3.6328125,-50.78125,-36.62109375,187.5,-51.7578125
3.63671875,-50.78125,-40.0390625,-346.19140625,-37.59765625
3.640625,-49.8046875,-42.48046875,-366.69921875,-20.99609375
3.64453125,-51.7578125,-39.0625,-290.0390625,-20.01953125
3.6484375,-43.45703125,-32.71484375,-696.77734375,-42.96875
3.65234375,-42.48046875,-28.80859375,-240.72265625,-38.57421875
3.65625,-36.1328125,-32.71484375,362.3046875,-29.296875
3.66015625,-50.29296875,-35.15625,106.4453125,-35.15625
3.6640625,-52.24609375,-36.62109375,-206.0546875,-48.33984375
3.66796875,-37.109375,-39.55078125,-218.75,-47.8515625
3.671875,-57.12890625,-38.57421875,104.98046875,-35.64453125
3.67578125,-54.6875,-35.15625,761.71875,-31.25
3.6796875,-32.2265625,-30.76171875,175.78125,-51.7578125
3.68359375,-32.2265625,-31.25,-521.97265625,-72.265625
3.6875,-37.59765625,-31.25,62.5,-49.31640625
3.69140625,-32.71484375,-33.203125,527.34375,-33.203125
3.6953125,-23.4375,-29.296875,12.20703125,-44.921875
3.69921875,-11.71875,-18.5546875,-40.0390625,-37.109375
3.703125,-17.578125,-23.92578125,-84.47265625,-30.76171875
3.70703125,-39.55078125,-28.3203125,-270.5078125,-32.2265625
3.7109375,-43.9453125,-33.69140625,-406.25,-27.83203125
3.71484375,-38.0859375,-32.71484375,-228.02734375,-25.87890625
3.71875,-2.9296875,-25.390625,50.29296875,-10.7421875
3.72265625,-32.71484375,-29.296875,616.69921875,-13.18359375
3.7265625,-45.8984375,-34.66796875,128.90625,-37.109375
3.73046875,-37.109375,-36.1328125,-539.55078125,-50.29296875
3.734375,-59.08203125,-43.45703125,-137.6953125,-44.43359375
3.73828125,-49.31640625,-47.36328125,70.3125,-23.92578125
3.7421875,-49.8046875,-45.8984375,-292.96875,-24.90234375
3.74609375,-55.17578125,-41.50390625,-265.13671875,-32.71484375
3.75,-60.05859375,-44.921875,444.82421875,-35.15625
3.75390625,-52.24609375,-45.41015625,-99.12109375,-36.1328125
3.7578125,-59.5703125,-41.9921875,-552.24609375,-38.0859375
3.76171875,-51.7578125,-41.9921875,-116.69921875,-42.48046875
3.765625,-44.43359375,-47.36328125,209.47265625,-44.921875
3.76953125,-49.8046875,-51.26953125,768.06640625,-27.83203125
3.7734375,-56.15234375,-48.828125,88.37890625,-30.76171875
3.77734375,-53.7109375,-40.0390625,-566.40625,-29.78515625
3.78125,-37.109375,-34.66796875,16.11328125,-17.578125
3.78515625,-22.4609375,-35.64453125,-150.390625,-13.18359375
3.7890625,-34.66796875,-41.015625,-222.16796875,5.37109375
3.79296875,-43.45703125,-46.875,447.265625,16.11328125
3.796875,-39.0625,-48.33984375,-3.90625,-17.08984375
3.80078125,-49.8046875,-47.36328125,-454.58984375,-27.34375
3.8046875,-34.1796875,-46.38671875,-388.671875,-3.90625
3.80859375,-26.85546875,-41.9921875,144.04296875,-3.41796875
3.8125,-41.015625,-35.64453125,68.359375,-6.34765625
3.81640625,-33.203125,-37.109375,376.46484375,-9.27734375
3.8203125,-31.25,-40.52734375,493.65234375,-4.39453125
3.82421875,-29.78515625,-40.0390625,-374.51171875,11.71875
3.828125,-24.90234375,-40.52734375,-353.02734375,-9.765625
3.83203125,-26.3671875,-42.96875,-199.21875,-23.4375
3.8359375,-15.13671875,-37.109375,-381.34765625,-15.13671875
3.83984375,-25.390625,-37.109375,44.43359375,-18.5546875
3.84375,-49.31640625,-44.43359375,227.05078125,-17.578125
3.84765625,-42.96875,-39.55078125,-67.3828125,-24.4140625
3.8515625,-40.52734375,-35.15625,-375.9765625,-36.1328125
3.85546875,-33.69140625,-40.52734375,3.41796875,-20.5078125
3.859375,-30.76171875,-44.43359375,413.57421875,-17.08984375
3.86328125,-30.76171875,-39.55078125,585.44921875,-35.15625
3.8671875,-39.55078125,-38.57421875,611.81640625,-41.50390625
3.87109375,-44.43359375,-39.55078125,-314.94140625,-44.921875
3.875,-28.3203125,-36.62109375,-676.7578125,-26.85546875
3.87890625,-38.0859375,-39.55078125,-415.0390625,-21.97265625
3.8828125,-33.69140625,-39.0625,-286.1328125,-39.0625
3.88671875,-27.34375,-33.69140625,594.7265625,-22.4609375
3.890625,-41.015625,-40.0390625,258.30078125,-23.4375
3.89453125,-32.2265625,-39.55078125,-402.34375,-18.06640625
3.8984375,-28.80859375,-37.109375,-258.30078125,-21.97265625
3.90234375,-37.59765625,-32.2265625,-308.10546875,-38.57421875
3.90625,-31.73828125,-34.66796875,-172.8515625,-21.97265625
3.91015625,-21.97265625,-37.109375,594.23828125,-24.4140625
3.9140625,-8.30078125,-33.69140625,300.29296875,-41.50390625
3.91796875,-24.4140625,-38.57421875,-500.9765625,-54.19921875
3.921875,-34.66796875,-40.0390625,-241.69921875,-49.8046875
3.92578125,-0.9765625,-32.2265625,333.984375,-23.92578125
3.9296875,-9.765625,-33.203125,-375.9765625,-29.78515625
3.93359375,-33.203125,-35.15625,-386.71875,-51.7578125
3.9375,-37.109375,-35.64453125,239.2578125,-58.10546875
3.94140625,-46.875,-43.45703125,-15.625,-49.31640625
3.9453125,-33.203125,-41.015625,-291.015625,-31.73828125
3.94921875,-32.71484375,-37.59765625,250.9765625,-35.15625
3.953125,-49.31640625,-48.33984375,266.6015625,-53.22265625
3.95703125,-37.59765625,-49.31640625,269.04296875,-36.1328125
3.9609375,-40.52734375,-41.50390625,109.375,-35.15625
3.96484375,-47.8515625,-42.96875,-532.2265625,-50.78125
3.96875,-46.38671875,-39.55078125,-118.1640625,-46.875
3.97265625,-47.36328125,-34.1796875,72.75390625,-32.71484375
3.9765625,-45.41015625,-38.57421875,-295.8984375,-28.80859375
3.98046875,-29.296875,-41.015625,414.0625,-34.1796875
3.984375,-28.80859375,-42.48046875,782.71484375,-29.78515625
3.98828125,-35.15625,-39.0625,-418.45703125,-29.78515625
3.9921875,-19.53125,-37.59765625,-720.21484375,-19.04296875
3.99609375,-21.484375,-38.57421875,-340.33203125,-19.04296875
4.0,-37.109375,-36.62109375,74.70703125,-36.62109375
4.00390625,-31.25,-38.0859375,683.10546875,-25.390625
4.0078125,-32.71484375,-39.55078125,46.38671875,-17.578125
4.01171875,-31.73828125,-40.52734375,-542.48046875,-18.06640625
4.015625,-28.80859375,-37.109375,-142.08984375,-20.99609375
4.01953125,-32.71484375,-34.1796875,-184.08203125,-33.69140625
4.0234375,-21.484375,-31.25,-166.50390625,-13.671875
4.02734375,-17.08984375,-29.296875,111.81640625,-6.34765625
4.03125,-22.4609375,-25.87890625,229.98046875,-24.4140625
4.03515625,-23.92578125,-28.80859375,24.90234375,-41.015625
4.0390625,-12.6953125,-30.2734375,-276.3671875,-25.390625
4.04296875,-13.671875,-28.80859375,314.453125,-5.859375
4.046875,-17.578125,-29.296875,-15.625,-23.4375
4.05078125,-18.06640625,-24.90234375,376.953125,-19.53125
4.0546875,-24.90234375,-25.87890625,186.5234375,-20.01953125
4.05859375,-35.64453125,-29.296875,-606.93359375,-23.4375
4.0625,-35.64453125,-26.3671875,39.55078125,-10.25390625
4.06640625,-32.71484375,-32.2265625,-75.68359375,-32.2265625
4.0703125,-41.9921875,-34.66796875,-253.41796875,-42.48046875
4.07421875,-32.2265625,-33.203125,446.77734375,-11.71875
4.078125,-30.76171875,-30.76171875,-38.0859375,-27.34375
4.08203125,-33.203125,-27.83203125,-355.95703125,-52.734375
4.0859375,-24.90234375,-35.15625,-300.78125,-40.52734375
4.08984375,-33.69140625,-30.76171875,-166.9921875,-26.85546875
4.09375,-38.57421875,-29.296875,117.1875,-20.01953125
4.09765625,-29.78515625,-36.62109375,373.046875,-29.78515625
4.1015625,-37.109375,-33.203125,796.875,-29.78515625
4.10546875,-41.50390625,-33.69140625,109.86328125,-18.5546875
4.109375,-38.0859375,-30.76171875,-770.01953125,-18.5546875
4.11328125,-33.69140625,-30.76171875,-456.54296875,-21.97265625
4.1171875,-26.85546875,-33.69140625,-467.28515625,-34.1796875
4.12109375,-32.2265625,-35.64453125,-171.38671875,-39.55078125
4.125,-40.0390625,-36.62109375,73.2421875,-23.92578125
4.12890625,-34.66796875,-33.203125,-38.0859375,-16.11328125
4.1328125,-35.15625,-33.69140625,-358.88671875,-38.57421875
4.13671875,-26.85546875,-36.62109375,-181.640625,-28.80859375
4.140625,-32.71484375,-34.66796875,301.26953125,-3.41796875
4.14453125,-37.59765625,-31.73828125,673.33984375,-5.859375
4.1484375,-24.4140625,-31.25,351.07421875,-13.18359375
4.15234375,-31.73828125,-31.25,-527.83203125,-31.73828125
4.15625,-30.76171875,-29.78515625,-84.9609375,-37.59765625
4.16015625,-27.83203125,-23.92578125,623.046875,-28.3203125
4.1640625,-33.203125,-23.92578125,-21.484375,-38.57421875
4.16796875,-28.3203125,-25.87890625,-43.45703125,-36.1328125
4.171875,-27.83203125,-25.87890625,-277.34375,-21.97265625
4.17578125,-24.4140625,-27.34375,-401.85546875,-16.6015625
4.1796875,-37.59765625,-29.78515625,-680.17578125,-22.4609375
4.18359375,-35.64453125,-33.203125,-405.76171875,-27.34375
4.1875,-23.4375,-31.25,314.453125,-30.2734375
4.19140625,-27.83203125,-29.78515625,602.5390625,-25.87890625
4.1953125,-22.4609375,-34.1796875,516.6015625,-23.92578125
4.19921875,-34.1796875,-33.69140625,-250.9765625,-31.73828125
4.203125,-40.0390625,-34.1796875,-406.73828125,-24.4140625
4.20703125,-45.41015625,-33.69140625,-214.84375,-23.92578125
4.2109375,-65.4296875,-36.1328125,-486.81640625,-39.55078125
4.21484375,-52.24609375,-36.62109375,52.24609375,-37.59765625
4.21875,-29.78515625,-23.4375,556.640625,-25.87890625
4.22265625,-37.109375,-23.92578125,-196.77734375,-41.9921875
4.2265625,-30.76171875,-31.25,-500.9765625,-36.1328125
4.23046875,-35.64453125,-33.69140625,-212.40234375,-24.4140625
4.234375,-43.45703125,-26.3671875,-10.25390625,-28.80859375
4.23828125,-34.66796875,-29.296875,723.6328125,-17.578125
4.2421875,-46.875,-36.1328125,208.0078125,-32.71484375
4.24609375,-52.734375,-34.1796875,-595.703125,-45.8984375
4.25,-47.8515625,-34.1796875,-266.6015625,-41.50390625
4.25390625,-38.57421875,-30.2734375,-279.296875,-29.78515625
4.2578125,-47.8515625,-30.76171875,-395.5078125,-19.53125
4.26171875,-43.45703125,-28.80859375,474.609375,-18.5546875
4.265625,-28.3203125,-24.4140625,231.4453125,-35.15625
4.26953125,-43.45703125,-27.83203125,-462.40234375,-63.96484375
4.2734375,-36.1328125,-31.25,-268.06640625,-42.48046875
4.27734375,-20.01953125,-30.76171875,320.80078125,-17.578125
4.28125,-32.71484375,-28.80859375,65.4296875,-44.43359375
4.28515625,-35.15625,-19.53125,376.953125,-42.96875
4.2890625,-23.4375,-25.87890625,-56.15234375,-25.87890625
4.29296875,-20.99609375,-33.203125,-609.375,-18.5546875
4.296875,-35.64453125,-25.87890625,-100.09765625,-37.59765625
4.30078125,-47.8515625,-23.92578125,-134.765625,-62.01171875
4.3046875,-50.29296875,-23.92578125,-252.9296875,-44.43359375
4.30859375,-37.59765625,-21.484375,-120.1171875,-21.484375
4.3125,-34.66796875,-22.94921875,-52.734375,-32.71484375
4.31640625,-36.62109375,-26.3671875,-43.45703125,-59.08203125
4.3203125,-44.921875,-27.34375,34.1796875,-53.7109375
4.32421875,-49.31640625,-27.83203125,20.99609375,-32.2265625
4.328125,-29.78515625,-26.3671875,83.984375,-29.78515625
4.33203125,-36.62109375,-28.3203125,618.65234375,-37.109375
4.3359375,-48.33984375,-26.3671875,442.87109375,-40.52734375
4.33984375,-46.875,-24.4140625,-252.44140625,-34.66796875
4.34375,-34.1796875,-31.73828125,-287.59765625,-41.015625
4.34765625,-38.57421875,-33.203125,-223.14453125,-50.78125
4.3515625,-52.24609375,-30.76171875,-475.09765625,-48.33984375
4.35546875,-35.64453125,-24.4140625,371.58203125,-33.203125
4.359375,-26.85546875,-24.90234375,398.4375,-17.578125
4.36328125,-40.0390625,-27.34375,-250.0,-34.1796875
4.3671875,-40.52734375,-21.484375,-446.2890625,-48.33984375
4.37109375,-50.78125,-20.01953125,-119.140625,-34.66796875
4.375,-51.26953125,-18.5546875,140.13671875,-27.34375
4.37890625,-20.99609375,-20.01953125,477.5390625,-29.296875
4.3828125,-39.0625,-28.3203125,51.26953125,-41.015625
4.38671875,-50.29296875,-25.87890625,-768.5546875,-53.22265625
4.390625,-40.0390625,-28.3203125,-41.9921875,-32.71484375
4.39453125,-38.57421875,-35.15625,336.9140625,-33.69140625
4.3984375,-44.43359375,-34.1796875,-386.71875,-55.17578125
4.40234375,-41.50390625,-23.92578125,-270.99609375,-43.45703125
4.40625,-38.0859375,-25.87890625,99.12109375,-25.87890625
4.41015625,-48.828125,-28.3203125,-231.93359375,-19.53125
4.4140625,-41.50390625,-30.2734375,-478.515625,-48.828125
4.41796875,-35.15625,-33.203125,-174.8046875,-58.59375
4.421875,-37.59765625,-25.390625,144.53125,-23.4375
4.42578125,-30.2734375,-28.3203125,759.765625,-6.8359375
4.4296875,-31.73828125,-32.71484375,291.9921875,-25.390625
4.43359375,-34.66796875,-29.78515625,-529.296875,-39.55078125
4.4375,-40.0390625,-32.71484375,-199.70703125,-29.78515625
4.44140625,-34.1796875,-34.66796875,-210.44921875,-22.4609375
4.4453125,-24.90234375,-31.73828125,-274.90234375,-29.78515625
4.44921875,-24.4140625,-24.90234375,763.671875,-28.80859375
4.453125,-22.4609375,-29.78515625,401.3671875,-30.76171875
4.45703125,-37.59765625,-33.203125,-612.3046875,-35.15625
4.4609375,-35.64453125,-35.64453125,-665.52734375,-24.90234375
4.46484375,-29.296875,-33.69140625,-387.20703125,-18.5546875
4.46875,-34.1796875,-31.25,-125.9765625,-24.4140625
4.47265625,-22.94921875,-30.2734375,532.2265625,-18.5546875
4.4765625,-18.5546875,-29.296875,772.4609375,-21.484375
4.48046875,-37.59765625,-34.1796875,-411.1328125,-36.62109375
4.484375,-27.34375,-30.2734375,-655.2734375,-35.64453125
4.48828125,-27.34375,-30.2734375,-55.6640625,-31.73828125
4.4921875,-30.2734375,-29.296875,-229.4921875,-34.66796875
4.49609375,-20.99609375,-28.80859375,-99.12109375,-39.55078125
4.5,-26.3671875,-28.80859375,87.40234375,-43.9453125
4.50390625,-34.1796875,-28.80859375,-76.171875,-35.64453125
4.5078125,-31.25,-29.296875,-9.765625,-18.06640625
4.51171875,-29.78515625,-30.76171875,226.07421875,-13.18359375
4.515625,-35.15625,-35.64453125,-23.92578125,-37.109375
4.51953125,-32.2265625,-34.66796875,475.5859375,-44.43359375
4.5234375,-37.59765625,-32.71484375,-119.62890625,-41.9921875
4.52734375,-50.29296875,-35.15625,-577.63671875,-41.015625
4.53125,-52.24609375,-36.1328125,-119.140625,-43.45703125
4.53515625,-63.4765625,-40.52734375,-298.33984375,-48.828125
4.5390625,-56.640625,-40.52734375,-274.4140625,-41.50390625
4.54296875,-37.59765625,-33.203125,603.02734375,-27.34375
4.546875,-38.0859375,-34.1796875,347.16796875,-41.50390625
4.55078125,-33.203125,-34.66796875,-301.26953125,-54.6875
4.5546875,-28.3203125,-33.203125,-327.63671875,-36.1328125
4.55859375,-27.34375,-30.76171875,-229.00390625,-16.6015625
4.5625,-35.15625,-35.15625,155.76171875,-16.11328125
4.56640625,-42.96875,-39.0625,621.09375,-15.13671875
4.5703125,-37.59765625,-34.66796875,542.96875,-13.18359375
4.57421875,-40.52734375,-34.66796875,-275.87890625,-32.2265625
4.578125,-34.1796875,-34.1796875,-614.2578125,-41.9921875
4.58203125,-14.6484375,-34.1796875,-216.796875,-40.52734375
4.5859375,-46.38671875,-36.1328125,-478.515625,-47.36328125
4.58984375,-57.6171875,-35.15625,-337.890625,-29.78515625
4.59375,-28.80859375,-39.0625,355.95703125,-16.6015625
4.59765625,-31.25,-40.52734375,7.8125,-41.50390625
4.6015625,-47.36328125,-36.1328125,-328.125,-59.5703125
4.60546875,-42.96875,-33.69140625,-105.46875,-38.0859375
4.609375,-34.66796875,-34.1796875,28.80859375,-19.04296875
4.61328125,-38.0859375,-36.62109375,685.05859375,-30.76171875
4.6171875,-43.45703125,-43.45703125,255.37109375,-45.41015625
4.62109375,-45.8984375,-38.57421875,-503.41796875,-41.50390625
4.625,-40.52734375,-30.76171875,218.75,-17.08984375
4.62890625,-36.1328125,-36.62109375,136.23046875,-47.36328125
4.6328125,-39.0625,-35.15625,-469.23828125,-65.91796875
4.63671875,-26.3671875,-33.203125,257.8125,-40.0390625
4.640625,-16.6015625,-32.71484375,-20.99609375,-41.015625
4.64453125,-25.390625,-27.83203125,-428.7109375,-35.15625
4.6484375,-31.25,-28.3203125,-447.265625,-42.48046875
4.65234375,-39.0625,-30.76171875,-312.01171875,-37.109375
4.65625,-45.41015625,-32.2265625,60.546875,-8.30078125
4.66015625,-34.66796875,-31.25,689.453125,-16.11328125
4.6640625,-32.2265625,-32.71484375,247.0703125,-25.87890625
4.66796875,-43.45703125,-28.3203125,-651.3671875,-28.80859375
4.671875,-32.2265625,-24.4140625,-402.34375,-27.83203125
4.67578125,-22.94921875,-24.90234375,-135.25390625,-18.5546875
4.6796875,-28.3203125,-26.3671875,-66.89453125,-26.85546875
4.68359375,-25.390625,-28.80859375,-17.08984375,-34.1796875
4.6875,-22.94921875,-27.83203125,330.56640625,-21.97265625
4.69140625,-19.53125,-24.90234375,-97.16796875,-13.18359375
4.6953125,-29.296875,-20.01953125,-525.390625,-22.4609375
4.69921875,-31.73828125,-23.92578125,-205.078125,-33.203125
4.703125,-22.4609375,-26.85546875,120.60546875,-18.5546875
4.70703125,-24.4140625,-28.3203125,708.49609375,-22.4609375
4.7109375,-10.7421875,-29.296875,275.390625,-31.25
4.71484375,-4.8828125,-20.99609375,-538.0859375,-33.69140625
4.71875,-25.87890625,-21.484375,-135.7421875,-32.2265625
4.72265625,-34.66796875,-27.34375,-220.21484375,-20.99609375
4.7265625,-31.73828125,-29.296875,-163.0859375,-16.6015625
4.73046875,-38.0859375,-30.2734375,692.3828125,-22.94921875
4.734375,-22.94921875,-30.2734375,157.71484375,-22.94921875
4.73828125,0.0,-32.71484375,-546.38671875,1.46484375
4.7421875,-26.85546875,-40.0390625,-477.05078125,14.16015625
4.74609375,-42.96875,-38.57421875,125.9765625,-27.34375
4.75,-34.66796875,-38.0859375,-35.15625,-46.875
4.75390625,-26.85546875,-39.0625,201.66015625,-7.32421875
4.7578125,-23.92578125,-37.109375,334.47265625,22.4609375
4.76171875,-31.25,-38.0859375,-435.546875,-5.37109375
4.765625,-30.2734375,-37.59765625,-340.8203125,-23.4375
4.76953125,-17.578125,-37.109375,-222.16796875,-5.37109375
4.7734375,-18.5546875,-40.52734375,-360.3515625,10.7421875
4.77734375,-30.2734375,-43.9453125,-13.671875,12.20703125
4.78125,-25.390625,-48.33984375,222.16796875,8.30078125
4.78515625,-11.71875,-48.33984375,81.54296875,19.04296875
4.7890625,-20.01953125,-50.78125,-240.234375,25.390625
4.79296875,-11.71875,-58.59375,185.05859375,32.71484375
4.796875,-12.6953125,-58.59375,558.10546875,24.4140625
4.80078125,-8.7890625,-58.59375,256.8359375,12.20703125
4.8046875,7.32421875,-58.59375,644.53125,27.83203125
4.80859375,1.46484375,-65.91796875,70.80078125,37.59765625
4.8125,-2.44140625,-61.5234375,-535.15625,33.203125
4.81640625,-11.23046875,-53.22265625,-270.01953125,38.0859375
4.8203125,-0.48828125,-53.7109375,-355.46875,51.26953125
4.82421875,20.01953125,-45.41015625,348.14453125,64.453125
4.828125,5.37109375,-50.78125,120.60546875,50.29296875
4.83203125,5.37109375,-53.22265625,-378.41796875,44.43359375
4.8359375,11.23046875,-55.17578125,-306.15234375,50.29296875
4.83984375,7.32421875,-57.6171875,-155.76171875,52.24609375
4.84375,16.11328125,-51.7578125,238.28125,52.734375
4.84765625,24.4140625,-51.7578125,791.9921875,43.9453125
4.8515625,23.92578125,-58.10546875,16.6015625,30.76171875
4.85546875,16.6015625,-56.15234375,-675.78125,49.8046875
4.859375,25.87890625,-54.19921875,-155.2734375,75.68359375
4.86328125,20.5078125,-61.03515625,52.24609375,72.265625
4.8671875,5.37109375,-59.08203125,-395.01953125,55.6640625
4.87109375,13.671875,-40.52734375,124.51171875,60.05859375
4.875,6.34765625,-41.9921875,469.23828125,58.59375
4.87890625,7.8125,-45.8984375,203.125,46.38671875
4.8828125,24.90234375,-40.52734375,274.90234375,40.52734375
4.88671875,12.20703125,-41.015625,-55.17578125,29.78515625
4.890625,11.23046875,-43.9453125,-312.01171875,43.45703125
4.89453125,17.578125,-48.828125,377.9296875,51.7578125
4.8984375,14.6484375,-46.38671875,65.91796875,31.73828125
4.90234375,5.859375,-46.38671875,-506.34765625,13.18359375
4.90625,0.9765625,-50.78125,-132.8125,35.15625
4.91015625,-8.30078125,-52.24609375,25.390625,47.8515625
4.9140625,-10.7421875,-47.36328125,11.71875,15.625
4.91796875,-7.8125,-46.38671875,628.41796875,17.08984375
4.921875,-13.671875,-49.31640625,369.62890625,25.390625
4.92578125,-14.6484375,-48.828125,-612.3046875,23.4375
4.9296875,-14.16015625,-47.36328125,-649.4140625,20.99609375
4.93359375,-11.23046875,-38.0859375,-143.06640625,15.13671875
4.9375,-3.41796875,-30.76171875,22.4609375,9.27734375
4.94140625,0.0,-38.0859375,604.00390625,8.30078125
4.9453125,-7.8125,-46.38671875,104.98046875,-0.9765625
4.94921875,-13.671875,-45.8984375,-527.34375,-7.32421875
4.953125,-17.578125,-40.52734375,-50.29296875,-8.30078125
4.95703125,-12.6953125,-39.55078125,121.09375,-10.7421875
4.9609375,-1.46484375,-38.0859375,-11.71875,-19.53125
4.96484375,-3.41796875,-34.66796875,-199.70703125,-24.90234375
4.96875,-18.5546875,-31.73828125,-137.6953125,-9.27734375
4.97265625,-23.92578125,-35.15625,19.53125,10.7421875
4.9765625,-29.78515625,-38.0859375,48.33984375,4.39453125
4.98046875,-22.94921875,-33.203125,196.77734375,-6.34765625
4.984375,-8.30078125,-33.203125,12.6953125,-10.7421875
4.98828125,-0.48828125,-29.296875,519.04296875,-7.32421875
4.9921875,-10.25390625,-30.76171875,136.23046875,-11.23046875
4.99609375,-15.13671875,-36.1328125,-706.0546875,-29.78515625
5.0,-34.1796875,-34.1796875,-304.19921875,-30.76171875
5.00390625,-37.109375,-31.73828125,-19.53125,-16.11328125
5.0078125,-42.96875,-34.66796875,48.33984375,4.8828125
5.01171875,-45.8984375,-30.76171875,421.38671875,13.18359375
5.015625,-30.76171875,-26.85546875,-123.53515625,-21.97265625
5.01953125,-7.32421875,-25.87890625,-536.62109375,-5.37109375
5.0234375,41.50390625,-25.390625,-210.9375,55.6640625
5.02734375,23.92578125,-19.04296875,1.953125,31.73828125
5.03125,-45.41015625,-18.06640625,-11.71875,-35.64453125
5.03515625,-57.12890625,-19.53125,432.6171875,-53.7109375
5.0390625,-48.828125,-19.53125,931.15234375,-32.2265625
5.04296875,-57.12890625,-24.90234375,145.01953125,-35.15625
5.046875,-50.78125,-24.4140625,-663.0859375,-50.29296875
5.05078125,-45.41015625,-19.04296875,-466.30859375,-66.89453125
5.0546875,-68.359375,-20.01953125,-262.20703125,-68.359375
5.05859375,-78.125,-20.99609375,-2.9296875,-71.2890625
5.0625,-72.265625,-24.4140625,79.1015625,-72.265625
5.06640625,-75.1953125,-27.83203125,-191.89453125,-69.82421875
5.0703125,-55.17578125,-28.80859375,-507.32421875,-75.68359375
5.07421875,-18.06640625,-26.85546875,-195.3125,-65.4296875
5.078125,-37.59765625,-27.83203125,218.26171875,-41.50390625
5.08203125,-82.03125,-35.15625,628.41796875,-41.9921875
5.0859375,-75.1953125,-36.62109375,627.9296875,-47.36328125
5.08984375,-60.546875,-31.25,-427.24609375,-49.8046875
5.09375,-51.7578125,-29.296875,-103.02734375,-42.96875
5.09765625,-41.50390625,-36.1328125,144.04296875,-45.8984375
5.1015625,-39.55078125,-32.2265625,-573.2421875,-47.8515625
5.10546875,-54.6875,-22.94921875,249.0234375,-37.59765625
5.109375,-41.015625,-25.390625,51.26953125,-37.59765625
5.11328125,-21.97265625,-26.3671875,-466.796875,-45.41015625
5.1171875,-35.15625,-25.390625,-337.40234375,-51.26953125
5.12109375,-40.0390625,-25.390625,-18.06640625,-30.2734375
5.125,-17.578125,-26.85546875,76.171875,-21.97265625
5.12890625,-31.73828125,-31.73828125,349.12109375,-34.1796875
5.1328125,-48.828125,-25.390625,529.296875,-49.8046875
5.13671875,-45.41015625,-24.90234375,-333.0078125,-57.12890625
5.140625,-40.0390625,-27.83203125,-396.97265625,-34.1796875
5.14453125,-26.3671875,-28.80859375,-194.3359375,-21.97265625
5.1484375,-27.34375,-31.25,-533.69140625,-38.57421875
5.15234375,-26.85546875,-25.87890625,30.2734375,-28.80859375
5.15625,-32.2265625,-25.390625,617.1875,-25.87890625
5.16015625,-42.48046875,-27.83203125,-69.3359375,-34.1796875
5.1640625,-36.1328125,-28.3203125,-289.0625,-30.76171875
5.16796875,-39.0625,-30.2734375,-83.984375,-30.2734375
5.171875,-42.48046875,-28.80859375,-80.078125,-13.18359375
5.17578125,-25.390625,-27.34375,465.33203125,4.39453125
5.1796875,-34.66796875,-28.3203125,-75.68359375,-17.08984375
5.18359375,-44.921875,-28.80859375,-623.046875,-32.71484375
5.1875,-35.64453125,-31.73828125,-149.4140625,-28.3203125
5.19140625,-21.484375,-30.76171875,-111.81640625,-30.2734375
5.1953125,-20.99609375,-31.73828125,-357.421875,-35.64453125
5.19921875,-39.0625,-29.296875,407.2265625,-43.9453125
5.203125,-43.9453125,-24.4140625,470.21484375,-36.62109375
5.20703125,-37.109375,-30.2734375,-137.6953125,-20.01953125
5.2109375,-44.921875,-29.78515625,-166.9921875,-10.7421875
5.21484375,-35.15625,-26.3671875,65.91796875,-6.8359375
5.21875,-23.4375,-25.390625,36.62109375,-10.7421875
5.22265625,-42.48046875,-24.4140625,405.2734375,-25.390625
5.2265625,-47.36328125,-22.4609375,81.0546875,-47.36328125
5.23046875,-38.0859375,-20.01953125,-620.60546875,-46.38671875
5.234375,-29.296875,-21.484375,-216.796875,-43.45703125
5.23828125,-23.4375,-20.5078125,-160.64453125,-28.80859375
5.2421875,-28.3203125,-17.578125,-343.26171875,-10.25390625
5.24609375,-31.25,-22.94921875,-214.35546875,-17.578125
5.25,-17.08984375,-23.4375,92.28515625,-18.06640625
5.25390625,-25.390625,-29.78515625,187.98828125,-32.71484375
5.2578125,-41.015625,-31.73828125,-110.83984375,-44.921875
5.26171875,-32.2265625,-26.85546875,-66.40625,-36.62109375
5.265625,-27.83203125,-23.4375,266.6015625,-34.1796875
5.26953125,-31.73828125,-23.4375,725.5859375,-22.4609375
5.2734375,-33.203125,-28.80859375,191.89453125,-14.16015625
5.27734375,-35.64453125,-34.66796875,-301.7578125,-28.3203125
5.28125,-48.828125,-31.73828125,-340.8203125,-42.96875
5.28515625,-51.7578125,-28.80859375,-296.875,-41.50390625
5.2890625,-43.9453125,-35.64453125,-187.01171875,-43.45703125
5.29296875,-35.15625,-32.2265625,379.8828125,-35.15625
5.296875,-20.5078125,-28.80859375,-31.25,-36.62109375
5.30078125,-21.97265625,-28.3203125,-510.7421875,-48.33984375
5.3046875,-15.625,-26.3671875,-460.44921875,-31.25
5.30859375,-15.625,-22.94921875,-230.46875,-20.5078125
5.3125,-29.296875,-28.3203125,83.0078125,-14.16015625
5.31640625,-36.1328125,-34.66796875,686.03515625,-27.34375
5.3203125,-31.25,-30.2734375,348.6328125,-55.17578125
5.32421875,-25.87890625,-32.2265625,-689.453125,-39.0625
5.328125,-17.578125,-32.2265625,50.29296875,-8.30078125
5.33203125,-22.4609375,-30.76171875,186.5234375,-20.01953125
5.3359375,-32.2265625,-32.71484375,-612.3046875,-34.66796875
5.33984375,-27.34375,-32.71484375,-180.17578125,-26.3671875
5.34375,-26.3671875,-29.296875,88.37890625,-10.25390625
5.34765625,-17.08984375,-27.83203125,-93.75,-8.7890625
5.3515625,-3.90625,-34.66796875,-356.4453125,-18.5546875
5.35546875,-20.01953125,-33.203125,-362.79296875,-13.18359375
5.359375,-23.4375,-28.3203125,167.96875,-1.46484375
5.36328125,-25.87890625,-28.3203125,736.328125,-7.8125
5.3671875,-48.33984375,-37.109375,428.7109375,-27.34375
5.37109375,-38.57421875,-41.50390625,-262.6953125,-34.66796875
5.375,-25.87890625,-29.78515625,-211.9140625,-25.87890625
5.37890625,-25.87890625,-31.73828125,-250.48828125,-37.109375
5.3828125,-36.1328125,-39.55078125,-511.23046875,-44.921875
5.38671875,-36.1328125,-39.0625,504.8828125,-34.66796875
5.390625,-26.3671875,-36.62109375,682.12890625,-21.97265625
5.39453125,-27.34375,-36.62109375,-343.26171875,-22.4609375
5.3984375,-44.921875,-41.015625,-638.18359375,-33.203125
5.40234375,-59.5703125,-37.109375,-268.5546875,-25.390625
5.40625,-41.015625,-35.64453125,24.90234375,-16.6015625
5.41015625,-43.45703125,-30.76171875,425.78125,-22.94921875
5.4140625,-50.29296875,-32.2265625,311.5234375,-43.9453125
5.41796875,-35.15625,-35.64453125,-441.89453125,-52.734375
5.421875,-39.0625,-36.62109375,-357.91015625,-36.1328125
5.42578125,-56.15234375,-37.59765625,44.921875,-30.76171875
5.4296875,-41.015625,-36.1328125,-117.1875,-31.25
5.43359375,-38.0859375,-34.66796875,-104.4921875,-45.41015625
5.4375,-43.45703125,-37.109375,66.89453125,-38.57421875
5.44140625,-40.52734375,-38.57421875,-209.47265625,-22.94921875
5.4453125,-49.31640625,-35.64453125,-10.25390625,-25.87890625
5.44921875,-31.73828125,-33.203125,148.4375,-31.25
5.453125,-33.203125,-35.64453125,-90.8203125,-35.15625
5.45703125,-42.96875,-46.38671875,553.7109375,-26.85546875
5.4609375,7.8125,-41.9921875,205.56640625,17.578125
5.46484375,19.04296875,-26.3671875,-587.40234375,10.7421875
5.46875,-50.29296875,-28.3203125,-204.58984375,-51.7578125
5.47265625,-72.75390625,-32.71484375,-255.37109375,-52.734375
5.4765625,-50.78125,-29.78515625,-565.91796875,-57.6171875
5.48046875,-67.3828125,-27.83203125,210.9375,-87.890625
5.484375,-104.00390625,-28.3203125,327.1484375,-108.88671875
5.48828125,-109.86328125,-19.53125,-273.92578125,-136.71875
5.4921875,-130.859375,-15.625,-379.8828125,-151.85546875
5.49609375,-152.34375,-14.16015625,-190.91796875,-156.73828125
5.5,-153.80859375,-6.8359375,-45.8984375,-183.59375
5.50390625,-145.99609375,-6.8359375,544.921875,-195.3125
5.5078125,-160.64453125,-13.18359375,716.796875,-212.890625
5.51171875,-166.50390625,-9.27734375,-419.921875,-246.09375
5.515625,-181.640625,-5.37109375,-659.66796875,-249.51171875
5.51953125,-210.44921875,-4.8828125,-378.41796875,-254.39453125
5.5234375,-180.17578125,-7.32421875,-251.46484375,-233.3984375
5.52734375,-182.12890625,-7.8125,-79.58984375,-225.09765625
5.53125,-204.58984375,-8.30078125,-120.1171875,-236.328125
5.53515625,-186.03515625,-8.30078125,-290.52734375,-242.1875
5.5390625,-175.78125,-7.32421875,-334.9609375,-230.46875
5.54296875,-170.8984375,-12.20703125,-162.59765625,-210.44921875
5.546875,-166.9921875,-11.71875,118.65234375,-223.6328125
5.55078125,-181.640625,-6.8359375,637.6953125,-235.3515625
5.5546875,-169.921875,-9.765625,-44.921875,-220.703125
5.55859375,-145.01953125,-6.34765625,-610.83984375,-198.2421875
5.5625,-158.69140625,0.9765625,199.21875,-197.265625
5.56640625,-147.4609375,0.9765625,-15.13671875,-198.2421875
5.5703125,-142.08984375,1.46484375,-540.52734375,-195.80078125
5.57421875,-143.5546875,-0.48828125,349.609375,-177.734375
5.578125,-118.65234375,-11.23046875,-49.31640625,-157.71484375
5.58203125,-106.93359375,-4.39453125,-550.29296875,-163.0859375
5.5859375,-96.6796875,0.9765625,-524.90234375,-146.97265625
5.58984375,-94.7265625,-2.9296875,-193.359375,-123.53515625
5.59375,-91.30859375,-3.41796875,58.10546875,-107.91015625
5.59765625,-93.26171875,-4.8828125,519.04296875,-105.46875
5.6015625,-82.51953125,-12.20703125,272.94921875,-124.0234375
5.60546875,-70.3125,-18.06640625,-427.24609375,-130.859375
5.609375,-72.75390625,-16.6015625,-205.078125,-107.91015625
5.61328125,-71.2890625,-20.5078125,-222.65625,-97.16796875
5.6171875,-77.1484375,-20.01953125,-349.12109375,-87.890625
5.62109375,-70.3125,-11.71875,105.95703125,-64.94140625
5.625,-50.29296875,-19.53125,312.98828125,-67.87109375
5.62890625,-54.6875,-37.109375,-164.0625,-73.73046875
5.6328125,-60.546875,-21.484375,-561.03515625,-69.82421875
5.63671875,-50.78125,-7.8125,-256.8359375,-55.17578125
5.640625,-47.36328125,-16.6015625,7.32421875,-33.203125
5.64453125,-47.8515625,-17.578125,407.2265625,-38.0859375
5.6484375,-47.8515625,-17.578125,272.4609375,-55.6640625
5.65234375,-34.1796875,-18.5546875,-577.1484375,-48.828125
5.65625,-26.3671875,-24.4140625,-358.3984375,-25.390625
5.66015625,-33.203125,-25.390625,-276.85546875,-21.484375
5.6640625,-31.25,-24.4140625,-161.1328125,-33.69140625
5.66796875,-17.578125,-25.87890625,572.265625,-47.36328125
5.671875,-17.08984375,-27.83203125,-165.52734375,-56.640625
5.67578125,-21.484375,-33.69140625,-592.28515625,-47.8515625
5.6796875,-8.30078125,-28.80859375,-255.37109375,-53.7109375
5.68359375,-7.32421875,-29.78515625,111.81640625,-54.19921875
5.6875,-18.06640625,-32.71484375,1.46484375,-39.55078125
5.69140625,-15.13671875,-27.34375,390.13671875,-28.3203125
5.6953125,-8.30078125,-32.71484375,367.67578125,-11.71875
5.69921875,-5.37109375,-32.71484375,-646.97265625,-28.80859375
5.703125,-16.11328125,-25.87890625,-346.6796875,-56.640625
5.70703125,-32.2265625,-31.73828125,-71.2890625,-52.24609375
5.7109375,-13.18359375,-30.76171875,-476.07421875,-37.59765625
5.71484375,-17.08984375,-26.3671875,-195.80078125,-49.8046875
5.71875,-43.9453125,-29.78515625,131.8359375,-72.75390625
5.72265625,-59.08203125,-25.390625,166.015625,-88.37890625
5.7265625,-43.45703125,-21.484375,-221.6796875,-75.68359375
5.73046875,-50.78125,-21.484375,-117.67578125,-80.56640625
5.734375,-100.5859375,-20.99609375,97.16796875,-134.27734375
5.73828125,-76.66015625,-23.92578125,327.1484375,-126.953125
5.7421875,-90.8203125,-24.90234375,796.38671875,-104.98046875
5.74609375,-107.91015625,-25.87890625,-22.4609375,-106.4453125
5.75,-89.35546875,-30.2734375,-609.86328125,-117.67578125
5.75390625,-80.078125,-28.80859375,-499.0234375,-116.2109375
5.7578125,-74.70703125,-27.34375,-482.91015625,-88.37890625
5.76171875,-79.1015625,-25.87890625,315.4296875,-80.56640625
5.765625,-64.453125,-31.73828125,14.6484375,-74.70703125
5.76953125,-57.6171875,-33.69140625,-505.859375,-68.359375
5.7734375,-49.31640625,-24.4140625,-340.8203125,-75.1953125
5.77734375,-49.31640625,-26.3671875,-84.9609375,-65.91796875
5.78125,-41.50390625,-30.2734375,165.52734375,-89.84375
5.78515625,-24.4140625,-26.85546875,638.671875,-107.91015625
5.7890625,-19.53125,-23.92578125,245.1171875,-77.1484375
5.79296875,-7.32421875,-24.90234375,-512.20703125,-69.82421875
5.796875,-29.78515625,-26.3671875,-206.54296875,-60.05859375
5.80078125,-22.4609375,-28.80859375,121.09375,-62.98828125
5.8046875,0.0,-34.66796875,-565.4296875,-83.0078125
5.80859375,-8.30078125,-31.25,-177.24609375,-87.40234375
5.8125,-6.8359375,-25.390625,202.63671875,-87.40234375
5.81640625,6.34765625,-24.90234375,-70.3125,-95.703125
5.8203125,-30.2734375,-32.2265625,-220.703125,-151.85546875
5.82421875,-56.15234375,-27.34375,-281.73828125,-165.52734375
5.828125,-21.484375,-14.16015625,-15.625,-141.11328125
5.83203125,-20.01953125,-12.6953125,484.86328125,-149.4140625
5.8359375,-26.85546875,-28.3203125,48.33984375,-163.0859375
5.83984375,-52.24609375,-42.48046875,-552.734375,-192.87109375
5.84375,-41.9921875,-40.52734375,-354.98046875,-201.66015625
5.84765625,-17.08984375,-43.9453125,122.0703125,-225.09765625
5.8515625,-19.53125,-45.8984375,171.875,-228.02734375
5.85546875,-16.11328125,-36.1328125,320.80078125,-184.08203125
5.859375,-16.6015625,-32.2265625,100.09765625,-120.60546875
5.86328125,-20.5078125,-37.109375,-526.85546875,-76.66015625
5.8671875,-21.484375,-44.921875,-405.2734375,-56.640625
5.87109375,-12.20703125,-41.015625,13.18359375,-32.2265625
5.875,-17.578125,-37.59765625,81.54296875,-20.01953125
5.87890625,-11.23046875,-39.0625,259.27734375,-0.48828125
5.8828125,-24.4140625,-45.41015625,315.91796875,10.25390625
5.88671875,-54.6875,-49.8046875,-291.015625,17.578125
5.890625,-42.96875,-41.9921875,-374.51171875,81.0546875
5.89453125,-24.90234375,-41.015625,-115.72265625,83.49609375
5.8984375,0.9765625,-45.8984375,-233.3984375,81.54296875
5.90234375,7.8125,-36.62109375,-245.1171875,137.6953125
5.90625,-0.48828125,-34.66796875,57.12890625,197.75390625
5.91015625,10.25390625,-39.55078125,145.99609375,237.3046875
5.9140625,16.6015625,-34.66796875,-103.515625,237.79296875
5.91796875,-8.7890625,-41.50390625,-88.8671875,270.01953125
5.921875,-3.90625,-49.8046875,80.56640625,278.3203125
5.92578125,23.92578125,-46.875,738.76953125,237.79296875
5.9296875,6.8359375,-45.41015625,-74.21875,239.2578125
5.93359375,-12.6953125,-36.1328125,-805.17578125,291.50390625
5.9375,-1.953125,-33.203125,-248.046875,347.65625
5.94140625,6.8359375,-41.015625,-297.8515625,334.9609375
5.9453125,25.390625,-35.64453125,81.0546875,307.12890625
5.94921875,12.20703125,-36.1328125,673.33984375,290.0390625
5.953125,-6.8359375,-41.015625,9.27734375,240.72265625
5.95703125,10.25390625,-38.0859375,-403.3203125,224.12109375
5.9609375,-15.625,-42.96875,-675.29296875,233.88671875
5.96484375,-18.5546875,-42.48046875,-358.3984375,248.53515625
5.96875,-1.46484375,-40.0390625,143.06640625,272.4609375
5.97265625,-4.8828125,-41.50390625,155.76171875,323.2421875
5.9765625,10.7421875,-43.45703125,732.91015625,307.6171875
5.98046875,25.87890625,-42.96875,202.63671875,266.11328125
5.984375,-5.859375,-44.921875,-611.81640625,288.57421875
5.98828125,-12.20703125,-35.64453125,-330.078125,351.5625
5.9921875,-5.859375,-33.69140625,-300.78125,355.95703125
5.99609375,2.44140625,-43.9453125,-119.62890625,328.125
6.0,14.6484375,-41.015625,62.01171875,321.77734375
6.00390625,14.6484375,-35.15625,-145.99609375,298.828125
6.0078125,20.5078125,-41.9921875,-430.17578125,229.00390625
6.01171875,34.66796875,-41.50390625,-153.80859375,282.71484375
6.015625,104.00390625,-34.1796875,69.82421875,422.36328125
6.01953125,103.02734375,-35.15625,370.1171875,483.3984375
6.0234375,45.8984375,-42.96875,450.1953125,513.671875
6.02734375,43.9453125,-41.9921875,-448.73046875,508.30078125
6.03125,-6.34765625,-46.875,-218.26171875,488.28125
6.03515625,-36.1328125,-55.6640625,-62.5,474.609375
6.0390625,0.48828125,-38.57421875,-727.05078125,555.17578125
6.04296875,14.16015625,-39.55078125,325.1953125,714.84375
6.046875,8.7890625,-50.29296875,347.65625,688.96484375
6.05078125,33.203125,-39.55078125,-261.23046875,623.53515625
6.0546875,8.7890625,-40.0390625,-305.6640625,645.01953125
6.05859375,-0.9765625,-32.71484375,-261.23046875,655.76171875
6.0625,47.8515625,-27.83203125,364.2578125,658.69140625
6.06640625,57.12890625,-34.66796875,655.2734375,596.19140625
6.0703125,35.64453125,-38.0859375,-363.76953125,580.078125
6.07421875,42.96875,-36.1328125,-652.83203125,698.73046875
6.078125,35.64453125,-34.66796875,-134.27734375,756.8359375
6.08203125,30.76171875,-38.57421875,-81.54296875,655.2734375
6.0859375,41.015625,-41.015625,-321.77734375,601.5625
6.08984375,41.50390625,-37.109375,172.36328125,631.8359375
6.09375,48.33984375,-34.66796875,390.13671875,650.390625
6.09765625,46.875,-36.62109375,0.9765625,671.38671875
6.1015625,40.0390625,-32.2265625,-62.5,680.17578125
6.10546875,69.3359375,-30.76171875,-257.32421875,637.6953125
6.109375,76.66015625,-30.2734375,-166.9921875,602.05078125
6.11328125,59.08203125,-32.71484375,641.11328125,611.328125
6.1171875,56.640625,-37.109375,31.25,585.9375
6.12109375,43.45703125,-39.55078125,-535.15625,585.44921875
6.125,36.1328125,-45.41015625,83.984375,623.53515625
6.12890625,64.453125,-35.15625,-74.70703125,508.7890625
6.1328125,65.91796875,-28.80859375,-453.125,405.2734375
6.13671875,51.7578125,-47.8515625,312.01171875,416.015625
6.140625,34.1796875,-57.12890625,181.15234375,374.0234375
6.14453125,19.53125,-41.9921875,-357.91015625,318.84765625
6.1484375,51.26953125,-27.83203125,-30.2734375,332.03125
6.15234375,74.70703125,-27.34375,126.46484375,360.3515625
6.15625,75.1953125,-32.2265625,-358.88671875,350.09765625
6.16015625,73.73046875,-41.015625,336.42578125,417.96875
6.1640625,72.75390625,-36.62109375,234.375,489.74609375
6.16796875,61.5234375,-37.59765625,-438.96484375,556.15234375
6.171875,62.01171875,-21.484375,65.4296875,659.66796875
6.17578125,91.30859375,-9.27734375,-124.51171875,676.7578125
6.1796875,66.40625,-32.71484375,-385.7421875,618.1640625
6.18359375,20.99609375,-45.41015625,-119.62890625,458.49609375
6.1875,20.99609375,-40.52734375,-29.296875,334.47265625
6.19140625,16.11328125,-47.36328125,105.95703125,382.32421875
6.1953125,21.484375,-50.78125,-97.16796875,461.9140625
6.19921875,30.76171875,-44.43359375,-53.22265625,479.98046875
6.203125,17.08984375,-48.828125,215.33203125,389.6484375
6.20703125,21.97265625,-44.43359375,595.703125,328.61328125
6.2109375,32.71484375,-55.6640625,271.97265625,270.5078125
6.21484375,52.24609375,-55.6640625,-328.61328125,202.1484375
6.21875,39.55078125,-45.41015625,-218.75,225.5859375
6.22265625,25.390625,-50.29296875,-234.86328125,173.828125
6.2265625,38.0859375,-45.41015625,-303.22265625,87.40234375
6.23046875,82.51953125,-37.109375,438.96484375,220.703125
6.234375,94.23828125,-42.96875,-35.64453125,359.86328125
6.23828125,65.4296875,-43.9453125,-408.69140625,422.8515625
6.2421875,63.4765625,-41.015625,-259.765625,398.4375
6.24609375,64.453125,-43.45703125,-110.83984375,276.3671875
6.25,91.796875,-29.78515625,140.625,217.7734375
6.25390625,111.328125,-38.0859375,580.56640625,288.0859375
6.2578125,97.16796875,-53.7109375,667.48046875,369.140625
6.26171875,81.0546875,-46.875,-346.6796875,413.57421875
6.265625,83.0078125,-40.0390625,-191.40625,504.8828125
6.26953125,100.5859375,-29.78515625,257.8125,625.9765625
6.2734375,97.65625,-40.52734375,-548.828125,727.05078125
6.27734375,102.5390625,-52.734375,-665.52734375,775.87890625
6.28125,104.98046875,-46.38671875,-204.1015625,819.82421875
6.28515625,111.328125,-36.1328125,-193.84765625,844.7265625
6.2890625,126.46484375,-27.34375,-310.05859375,859.375
6.29296875,104.98046875,-31.25,87.890625,868.65234375
6.296875,103.515625,-35.15625,6.34765625,819.82421875
6.30078125,126.953125,-31.73828125,258.30078125,820.80078125
6.3046875,135.7421875,-39.55078125,595.21484375,846.6796875
6.30859375,118.1640625,-41.50390625,-272.4609375,829.1015625
6.3125,108.88671875,-42.96875,-410.64453125,797.8515625
6.31640625,145.5078125,-47.36328125,-283.69140625,782.71484375
6.3203125,165.0390625,-30.76171875,-186.03515625,822.75390625
6.32421875,171.38671875,-11.71875,626.46484375,863.28125
6.328125,181.640625,-16.6015625,417.96875,836.42578125
6.33203125,144.53125,-41.50390625,-330.078125,766.11328125
6.3359375,159.1796875,-60.546875,-597.65625,752.9296875
6.33984375,199.70703125,-61.5234375,-251.46484375,802.24609375
6.34375,166.50390625,-34.1796875,287.59765625,806.640625
6.34765625,169.921875,-9.27734375,663.57421875,748.53515625
6.3515625,190.4296875,1.953125,253.41796875,701.66015625
6.35546875,168.9453125,-10.25390625,-340.33203125,680.6640625
6.359375,197.265625,-8.30078125,-64.94140625,641.6015625
6.36328125,215.8203125,-7.8125,42.48046875,605.46875
6.3671875,143.5546875,-41.50390625,-390.625,565.4296875
6.37109375,142.578125,-42.96875,-263.18359375,548.828125
6.375,179.6875,-26.3671875,263.18359375,547.36328125
6.37890625,181.640625,-46.875,93.75,494.62890625
6.3828125,208.0078125,-51.7578125,-159.66796875,424.8046875
6.38671875,207.51953125,-41.9921875,92.28515625,467.7734375
6.390625,150.390625,-49.31640625,104.4921875,472.16796875
6.39453125,155.76171875,-34.66796875,482.91015625,327.63671875
6.3984375,201.66015625,-20.01953125,63.4765625,235.83984375
6.40234375,196.77734375,-28.3203125,-360.3515625,244.140625
6.40625,201.66015625,-27.83203125,101.07421875,255.37109375
6.41015625,211.9140625,-37.59765625,-138.671875,227.05078125
6.4140625,220.21484375,-40.52734375,-625.9765625,167.48046875
6.41796875,246.09375,-30.76171875,193.359375,136.23046875
6.421875,232.421875,-19.53125,293.45703125,129.8828125
6.42578125,190.91796875,-26.85546875,-379.8828125,116.2109375
6.4296875,188.4765625,-33.203125,-301.7578125,76.66015625
6.43359375,200.1953125,-29.78515625,-52.24609375,53.7109375
6.4375,206.0546875,-31.25,10.7421875,104.00390625
6.44140625,219.23828125,-27.83203125,414.55078125,194.82421875
6.4453125,224.12109375,-22.94921875,586.9140625,250.9765625
6.44921875,250.0,-26.3671875,-21.97265625,260.7421875
6.453125,246.58203125,-35.64453125,-446.77734375,273.4375
6.45703125,200.1953125,-31.25,-363.28125,332.51953125
6.4609375,193.84765625,-29.296875,-335.44921875,305.6640625
6.46484375,228.02734375,-35.15625,-106.4453125,229.4921875
6.46875,260.7421875,-40.0390625,91.30859375,171.38671875
6.47265625,219.7265625,-45.41015625,32.2265625,97.16796875
6.4765625,202.63671875,-42.48046875,-191.40625,87.890625
6.48046875,209.9609375,-34.66796875,66.40625,225.09765625
6.484375,179.6875,-41.015625,345.703125,331.54296875
6.48828125,164.55078125,-46.875,682.12890625,382.32421875
6.4921875,201.66015625,-47.8515625,-134.27734375,407.71484375
6.49609375,219.23828125,-51.7578125,-785.15625,375.9765625
6.5,187.01171875,-44.43359375,-12.20703125,355.46875
6.50390625,175.29296875,-44.921875,32.2265625,293.9453125
6.5078125,177.734375,-49.31640625,-350.5859375,238.28125
6.51171875,212.40234375,-54.19921875,499.51171875,250.9765625
6.515625,228.02734375,-50.29296875,-24.90234375,318.359375
6.51953125,208.49609375,-44.921875,-592.7734375,380.859375
6.5234375,238.28125,-41.015625,-509.765625,379.8828125
6.52734375,218.26171875,-53.22265625,-153.3203125,354.00390625
6.53125,169.921875,-55.6640625,129.8828125,308.10546875
6.53515625,190.4296875,-45.8984375,543.9453125,285.64453125
6.5390625,184.08203125,-48.828125,381.34765625,273.4375
6.54296875,185.546875,-39.0625,-470.703125,248.53515625
6.546875,214.35546875,-20.01953125,-311.5234375,208.49609375
6.55078125,206.54296875,-20.5078125,25.87890625,149.4140625
6.5546875,164.55078125,-44.921875,-217.28515625,106.4453125
6.55859375,160.64453125,-40.52734375,-78.125,105.46875
6.5625,208.49609375,-28.80859375,386.23046875,127.44140625
6.56640625,227.05078125,-39.55078125,-121.09375,59.08203125
6.5703125,196.2890625,-47.8515625,-524.4140625,-46.875
6.57421875,160.64453125,-47.36328125,-208.984375,-94.23828125
6.578125,155.2734375,-45.41015625,188.4765625,-128.41796875
6.58203125,181.15234375,-45.8984375,640.13671875,-144.04296875
6.5859375,208.984375,-47.8515625,285.64453125,-135.7421875
6.58984375,213.37890625,-35.64453125,-182.6171875,-122.0703125
6.59375,199.70703125,-28.80859375,-84.9609375,-96.6796875
6.59765625,194.3359375,-21.97265625,-252.44140625,-97.16796875
6.6015625,194.82421875,-23.92578125,-379.8828125,-98.6328125
6.60546875,181.640625,-48.33984375,338.37890625,-142.578125
6.609375,172.36328125,-52.734375,191.40625,-144.04296875
6.61328125,191.89453125,-36.1328125,-409.1796875,61.03515625
6.6171875,201.66015625,-36.1328125,-111.81640625,190.4296875
6.62109375,203.61328125,-47.36328125,233.3984375,232.421875
6.625,177.734375,-47.8515625,-96.19140625,281.73828125
6.62890625,165.52734375,-30.2734375,395.01953125,291.50390625
6.6328125,181.640625,-28.80859375,233.3984375,249.0234375
6.63671875,161.1328125,-41.015625,-554.6875,211.9140625
6.640625,172.36328125,-39.0625,-270.5078125,214.84375
6.64453125,158.69140625,-33.203125,-204.58984375,196.2890625
6.6484375,125.9765625,-40.0390625,-444.82421875,157.71484375
6.65234375,135.7421875,-32.2265625,104.00390625,158.203125
6.65625,120.60546875,-29.296875,345.703125,134.765625
6.66015625,98.6328125,-30.76171875,-60.05859375,41.9921875
6.6640625,95.703125,-27.34375,-221.6796875,20.5078125
6.66796875,68.84765625,-29.78515625,53.7109375,5.859375
6.671875,76.66015625,-14.16015625,160.64453125,-73.2421875
6.67578125,56.15234375,-7.8125,333.984375,-130.859375
6.6796875,8.30078125,-29.296875,718.26171875,-184.5703125
6.68359375,-34.1796875,-47.36328125,-64.453125,-252.44140625
6.6875,-67.87109375,-54.6875,-729.98046875,-256.34765625
6.69140625,-22.4609375,-47.36328125,-317.87109375,-218.75
6.6953125,1.953125,-41.015625,-363.28125,-189.453125
6.69921875,-28.80859375,-41.015625,250.9765625,-209.9609375
6.703125,-30.76171875,-33.203125,130.859375,-242.67578125
6.70703125,11.71875,-18.5546875,-416.9921875,-228.02734375
6.7109375,40.0390625,-25.87890625,-137.20703125,-230.95703125
6.71484375,39.0625,-30.76171875,-105.95703125,-218.26171875
6.71875,24.4140625,-32.71484375,-258.30078125,-200.68359375
6.72265625,16.6015625,-46.875,551.26953125,-155.2734375
6.7265625,32.2265625,-53.22265625,274.4140625,-101.07421875
6.73046875,67.3828125,-37.109375,-568.359375,-42.48046875
6.734375,83.0078125,-35.64453125,198.2421875,39.55078125
6.73828125,75.68359375,-46.38671875,93.75,90.33203125
6.7421875,83.49609375,-49.8046875,-703.61328125,119.140625
6.74609375,77.1484375,-42.48046875,-130.37109375,180.6640625
6.75,97.65625,-41.015625,195.80078125,239.2578125
6.75390625,132.32421875,-36.1328125,-181.640625,261.23046875
6.7578125,109.375,-37.59765625,-163.0859375,278.3203125
6.76171875,107.421875,-42.48046875,64.94140625,289.55078125
6.765625,143.5546875,-35.64453125,-157.2265625,309.5703125
6.76953125,194.82421875,-28.3203125,714.84375,328.125
6.7734375,194.3359375,-35.15625,260.25390625,293.9453125
6.77734375,141.6015625,-47.8515625,-705.078125,274.90234375
6.78125,141.6015625,-49.31640625,-37.59765625,293.45703125
6.78515625,169.43359375,-52.24609375,-107.91015625,300.29296875
6.7890625,176.26953125,-41.9921875,-178.22265625,317.87109375
6.79296875,196.77734375,-28.80859375,741.69921875,340.8203125
6.796875,207.51953125,-42.48046875,650.87890625,303.22265625
6.80078125,185.05859375,-49.8046875,-331.0546875,267.08984375
6.8046875,164.0625,-45.41015625,-611.328125,292.48046875
6.80859375,163.0859375,-42.48046875,-171.875,321.77734375
6.8125,187.5,-33.69140625,92.7734375,344.7265625
6.81640625,206.0546875,-36.1328125,373.046875,316.89453125
6.8203125,206.0546875,-37.109375,-8.30078125,301.7578125
6.82421875,206.54296875,-38.57421875,-573.73046875,302.734375
6.828125,187.01171875,-48.828125,-259.27734375,283.69140625
6.83203125,166.015625,-55.17578125,-154.78515625,274.4140625
6.8359375,174.8046875,-51.7578125,-185.546875,259.765625
6.83984375,154.296875,-44.43359375,7.8125,232.421875
6.84375,154.296875,-46.875,92.28515625,219.23828125
6.84765625,154.296875,-44.921875,-101.5625,184.5703125
6.8515625,156.25,-34.1796875,239.2578125,166.9921875
6.85546875,166.9921875,-28.3203125,157.2265625,171.875
6.859375,153.80859375,-30.76171875,-347.65625,149.90234375
6.86328125,184.5703125,-27.34375,519.04296875,159.66796875
6.8671875,201.66015625,-33.203125,504.39453125,169.921875
6.87109375,158.69140625,-42.48046875,-644.53125,132.8125
6.875,141.6015625,-41.9921875,-487.79296875,107.421875
6.87890625,158.69140625,-41.9921875,-300.78125,103.02734375
6.8828125,179.6875,-38.0859375,-292.96875,111.81640625
6.88671875,175.78125,-30.2734375,433.59375,139.16015625
6.890625,146.97265625,-35.15625,37.59765625,163.0859375
6.89453125,124.51171875,-51.7578125,-322.265625,208.0078125
6.8984375,138.18359375,-47.36328125,-517.578125,202.63671875
6.90234375,158.203125,-23.4375,-203.125,179.19921875
6.90625,149.90234375,-20.99609375,186.5234375,193.84765625
6.91015625,140.13671875,-30.2734375,247.55859375,205.078125
6.9140625,134.27734375,-37.109375,621.09375,208.984375
6.91796875,132.32421875,-42.96875,82.03125,202.1484375
6.921875,144.04296875,-35.64453125,-590.33203125,217.28515625
6.92578125,139.16015625,-23.92578125,-452.63671875,239.74609375
6.9296875,126.953125,-34.1796875,-486.328125,217.28515625
6.93359375,142.08984375,-37.59765625,-176.7578125,195.3125
6.9375,125.9765625,-39.0625,227.5390625,209.47265625
6.94140625,90.33203125,-52.24609375,-116.69921875,201.66015625
6.9453125,94.23828125,-39.55078125,-335.44921875,199.21875
6.94921875,122.55859375,-26.3671875,175.29296875,186.03515625
6.953125,130.859375,-25.390625,399.4140625,166.50390625
6.95703125,114.2578125,-32.71484375,461.42578125,193.359375
6.9609375,100.09765625,-42.48046875,453.61328125,224.12109375
6.96484375,106.93359375,-20.01953125,-504.8828125,207.03125
6.96875,92.7734375,-20.99609375,-128.41796875,189.453125
6.97265625,94.23828125,-39.0625,-30.2734375,179.6875
6.9765625,92.7734375,-43.9453125,-566.40625,159.66796875
6.98046875,74.21875,-48.828125,169.921875,138.18359375
6.984375,75.68359375,-54.19921875,-20.5078125,124.0234375
6.98828125,78.125,-47.8515625,-327.63671875,108.3984375
6.9921875,81.0546875,-37.109375,-230.95703125,108.3984375
6.99609375,86.9140625,-32.71484375,-257.32421875,87.890625
7.0,96.6796875,-29.78515625,97.16796875,62.98828125
7.00390625,96.19140625,-33.203125,732.421875,72.265625
7.0078125,97.65625,-30.76171875,85.44921875,79.58984375
7.01171875,83.984375,-31.73828125,-660.15625,75.68359375
7.015625,75.68359375,-33.203125,-252.9296875,60.05859375
7.01953125,69.82421875,-31.25,-148.4375,18.06640625
7.0234375,70.80078125,-42.48046875,-496.58203125,-21.484375
7.02734375,59.5703125,-33.69140625,151.3671875,-31.25
7.03125,54.6875,-26.3671875,468.26171875,-20.01953125
7.03515625,64.453125,-27.34375,-266.6015625,-41.015625
7.0390625,64.94140625,-25.87890625,-30.76171875,1.953125
7.04296875,47.8515625,-34.1796875,83.0078125,83.49609375
7.046875,66.40625,-43.45703125,-147.4609375,63.4765625
7.05078125,90.33203125,-38.57421875,481.93359375,38.0859375
7.0546875,80.078125,-36.62109375,65.4296875,41.015625
7.05859375,73.2421875,-38.0859375,-600.09765625,59.08203125
7.0625,48.828125,-41.9921875,-68.359375,61.5234375
7.06640625,46.38671875,-43.9453125,-243.65234375,31.25
7.0703125,56.640625,-46.38671875,-172.8515625,29.78515625
7.07421875,55.17578125,-51.26953125,523.92578125,43.9453125
7.078125,51.26953125,-48.33984375,-6.34765625,21.484375
7.08203125,48.828125,-43.9453125,-274.90234375,17.578125
7.0859375,56.640625,-32.2265625,203.61328125,40.52734375
7.08984375,56.15234375,-26.3671875,-43.9453125,35.15625
7.09375,43.45703125,-43.9453125,-324.21875,24.4140625
7.09765625,41.9921875,-46.38671875,530.2734375,20.01953125
7.1015625,60.05859375,-35.15625,-17.578125,5.37109375
7.10546875,61.03515625,-33.203125,-884.765625,11.23046875
7.109375,60.05859375,-32.71484375,-325.1953125,18.5546875
7.11328125,25.87890625,-42.48046875,178.7109375,2.44140625
7.1171875,20.99609375,-52.734375,-169.43359375,-1.953125
7.12109375,41.015625,-42.96875,-364.2578125,19.04296875
7.125,42.96875,-34.66796875,69.82421875,12.20703125
7.12890625,56.15234375,-31.73828125,-91.796875,-6.34765625
7.1328125,55.6640625,-33.203125,-372.55859375,8.30078125
7.13671875,26.85546875,-46.38671875,-135.7421875,13.18359375
7.140625,29.78515625,-54.6875,201.171875,5.859375
7.14453125,47.36328125,-50.29296875,670.41015625,12.20703125
7.1484375,61.5234375,-41.50390625,525.87890625,-11.71875
7.15234375,39.0625,-36.62109375,-397.94921875,-31.25
7.15625,45.41015625,-37.59765625,-498.53515625,17.08984375
7.16015625,50.78125,-30.2734375,-300.29296875,24.4140625
7.1640625,23.4375,-25.87890625,-128.41796875,12.20703125
7.16796875,37.59765625,-32.71484375,444.3359375,9.765625
7.171875,41.015625,-44.921875,-69.82421875,2.44140625
7.17578125,41.50390625,-48.33984375,-397.4609375,-2.9296875
7.1796875,53.22265625,-39.55078125,-465.33203125,-14.6484375
7.18359375,23.4375,-39.55078125,-189.453125,-21.97265625
7.1875,15.13671875,-45.41015625,-144.53125,0.0
7.19140625,24.4140625,-36.62109375,307.6171875,30.76171875
7.1953125,13.18359375,-32.71484375,529.78515625,39.55078125
7.19921875,8.30078125,-37.59765625,-418.9453125,34.1796875
7.203125,17.08984375,-33.203125,-66.40625,47.36328125
7.20703125,26.85546875,-32.2265625,36.62109375,48.33984375
7.2109375,28.80859375,-34.1796875,-572.265625,55.6640625
7.21484375,18.06640625,-26.3671875,-316.40625,76.171875
7.21875,15.13671875,-29.78515625,35.64453125,63.96484375
7.22265625,44.43359375,-31.25,-19.53125,70.3125
7.2265625,42.48046875,-21.484375,-260.7421875,89.35546875
7.23046875,51.7578125,-23.4375,0.0,66.40625
7.234375,55.6640625,-29.78515625,-47.8515625,52.734375
7.23828125,34.66796875,-23.92578125,281.73828125,65.4296875
7.2421875,54.19921875,-28.80859375,553.22265625,79.58984375
7.24609375,64.453125,-31.73828125,-209.47265625,78.125
7.25,53.7109375,-28.80859375,-364.74609375,65.91796875
7.25390625,41.50390625,-26.3671875,-217.7734375,55.6640625
7.2578125,44.921875,-22.94921875,-471.6796875,52.734375
7.26171875,50.78125,-35.15625,408.69140625,49.31640625
7.265625,33.203125,-30.2734375,737.79296875,45.8984375
7.26953125,16.6015625,-21.97265625,-356.93359375,58.10546875
7.2734375,37.59765625,-26.3671875,-462.890625,81.54296875
7.27734375,43.45703125,-21.97265625,-37.109375,88.8671875
7.28125,32.2265625,-27.34375,-35.64453125,64.94140625
7.28515625,40.52734375,-28.80859375,585.44921875,44.43359375
7.2890625,36.62109375,-34.1796875,510.7421875,32.2265625
7.29296875,29.296875,-42.48046875,-704.58984375,29.78515625
7.296875,20.01953125,-38.57421875,-554.6875,32.2265625
7.30078125,15.13671875,-32.2265625,-112.3046875,8.7890625
7.3046875,10.25390625,-31.25,-541.015625,23.4375
7.30859375,13.671875,-26.3671875,-367.67578125,52.24609375
7.3125,23.4375,-22.94921875,114.2578125,47.36328125
7.31640625,20.99609375,-34.66796875,38.0859375,39.0625
7.3203125,23.4375,-42.48046875,376.46484375,24.90234375
7.32421875,15.625,-46.875,268.06640625,26.85546875
7.328125,2.44140625,-34.1796875,-172.36328125,39.55078125
7.33203125,-3.90625,-27.34375,367.1875,40.0390625
7.3359375,20.5078125,-31.73828125,-148.4375,27.34375
7.33984375,33.203125,-37.59765625,-668.9453125,21.97265625
7.34375,1.46484375,-42.96875,-200.68359375,25.390625
7.34765625,-5.37109375,-44.43359375,-75.1953125,24.90234375
7.3515625,32.71484375,-38.57421875,-278.3203125,11.71875
7.35546875,32.71484375,-33.203125,192.3828125,12.20703125
7.359375,9.765625,-33.203125,330.078125,39.55078125
7.36328125,11.71875,-29.296875,70.3125,42.48046875
7.3671875,1.46484375,-32.71484375,-359.375,8.7890625
7.37109375,-14.16015625,-43.45703125,-253.90625,-6.34765625
7.375,-26.85546875,-39.0625,139.6484375,7.8125
7.37890625,-8.30078125,-32.71484375,522.94921875,8.30078125
7.3828125,7.8125,-32.2265625,582.03125,-9.27734375
7.38671875,0.0,-35.64453125,-232.91015625,-20.99609375
7.390625,20.01953125,-34.1796875,-357.421875,-14.16015625
7.39453125,11.23046875,-39.55078125,19.04296875,-5.37109375
7.3984375,-35.15625,-43.45703125,-268.5546875,-10.7421875
7.40234375,-10.7421875,-40.0390625,-354.98046875,-0.48828125
7.40625,43.9453125,-42.96875,38.0859375,-4.39453125
7.41015625,-15.13671875,-44.43359375,136.71875,7.8125
7.4140625,-37.59765625,-37.59765625,-330.56640625,31.73828125
7.41796875,-7.32421875,-38.0859375,-142.578125,41.50390625
7.421875,-5.37109375,-45.41015625,193.359375,42.96875
7.42578125,8.7890625,-39.0625,630.37109375,53.7109375
7.4296875,10.7421875,-32.2265625,-108.3984375,39.0625
7.43359375,-9.27734375,-39.55078125,-636.71875,3.41796875
7.4375,-13.671875,-35.15625,318.84765625,20.99609375
7.44140625,-5.37109375,-34.66796875,-116.69921875,22.94921875
7.4453125,23.4375,-45.41015625,-373.53515625,19.04296875
7.44921875,-6.34765625,-37.109375,345.703125,31.25
7.453125,12.20703125,-26.3671875,-62.98828125,41.9921875
7.45703125,36.62109375,-23.4375,-305.17578125,49.8046875
7.4609375,-12.6953125,-38.57421875,-364.2578125,5.859375
7.46484375,1.953125,-33.69140625,-275.390625,-30.2734375
7.46875,15.13671875,-19.04296875,-22.94921875,-19.04296875
7.47265625,-4.39453125,-16.11328125,496.58203125,12.6953125
7.4765625,24.90234375,-9.27734375,461.9140625,64.94140625
7.48046875,5.859375,-20.01953125,-434.5703125,46.875
7.484375,-25.390625,-29.78515625,-344.7265625,14.16015625
7.48828125,1.46484375,-19.04296875,45.41015625,31.25
7.4921875,2.9296875,-19.53125,-327.1484375,31.73828125
7.49609375,-25.87890625,-29.296875,-47.8515625,31.25
7.5,-11.23046875,-23.92578125,286.62109375,20.99609375
7.50390625,-7.32421875,-36.62109375,-63.4765625,2.9296875
7.5078125,-47.8515625,-52.734375,-116.69921875,8.30078125
7.51171875,-54.19921875,-51.7578125,49.8046875,-3.90625
7.515625,-26.3671875,-52.24609375,118.1640625,-23.4375
7.51953125,-34.66796875,-58.10546875,478.02734375,-28.80859375
7.5234375,-38.0859375,-61.03515625,286.62109375,-26.3671875
7.52734375,-40.0390625,-64.453125,-554.19921875,-31.25
7.53125,-48.33984375,-57.12890625,-406.73828125,-14.6484375
7.53515625,-25.87890625,-52.24609375,-87.40234375,-10.7421875
7.5390625,-2.44140625,-54.6875,-110.3515625,-20.5078125
7.54296875,-19.04296875,-49.8046875,418.9453125,-29.296875
7.546875,-36.1328125,-50.78125,76.171875,-36.1328125
7.55078125,-36.1328125,-50.29296875,-534.66796875,-41.50390625
7.5546875,-37.59765625,-53.22265625,-165.0390625,-49.31640625
7.55859375,-35.15625,-59.08203125,-246.58203125,-29.78515625
7.5625,-27.34375,-47.8515625,-252.9296875,-19.53125
7.56640625,-23.92578125,-40.52734375,642.578125,-22.94921875
7.5703125,-32.2265625,-52.24609375,290.52734375,-13.671875
7.57421875,1.46484375,-41.50390625,-447.265625,5.37109375
7.578125,6.8359375,-41.50390625,-152.83203125,10.25390625
7.58203125,-30.76171875,-56.640625,-83.0078125,-8.7890625
7.5859375,-47.8515625,-49.8046875,-374.0234375,-12.6953125
7.58984375,-31.73828125,-41.9921875,-154.296875,0.48828125
7.59375,-38.57421875,-37.59765625,46.38671875,-9.765625
7.59765625,-27.34375,-40.0390625,168.9453125,-49.8046875
7.6015625,-2.44140625,-44.43359375,-35.15625,-126.953125
7.60546875,-19.04296875,-43.45703125,-51.7578125,-145.99609375
7.609375,-21.97265625,-45.41015625,203.125,-144.04296875
7.61328125,-10.7421875,-43.45703125,518.06640625,-139.6484375
7.6171875,-18.06640625,-39.55078125,658.69140625,-130.859375
7.62109375,-38.0859375,-37.109375,116.69921875,-121.09375
7.625,-41.015625,-38.0859375,-417.48046875,-106.4453125
7.62890625,-21.484375,-38.0859375,-525.87890625,-109.375
7.6328125,-19.04296875,-43.9453125,-446.77734375,-108.88671875
7.63671875,-34.1796875,-39.0625,355.46875,-92.7734375
7.640625,-19.53125,-37.109375,145.99609375,-102.5390625
7.64453125,6.8359375,-56.640625,-380.859375,-85.44921875
7.6484375,-7.8125,-54.19921875,-277.34375,-75.1953125
7.65234375,-28.80859375,-43.9453125,-128.41796875,-83.0078125
7.65625,-50.78125,-44.43359375,95.703125,-62.01171875
7.66015625,-46.875,-39.55078125,624.0234375,-41.015625
7.6640625,-36.1328125,-33.203125,-17.578125,-41.50390625
7.66796875,-22.94921875,-34.1796875,-634.765625,-52.24609375
7.671875,-8.30078125,-36.62109375,290.0390625,-42.48046875
7.67578125,-18.5546875,-44.43359375,-66.40625,-35.15625
7.6796875,-45.41015625,-47.8515625,-818.359375,-38.57421875
7.68359375,-32.2265625,-34.66796875,-282.2265625,-34.1796875
7.6875,-12.6953125,-25.87890625,148.4375,-12.6953125
7.69140625,-32.71484375,-37.59765625,95.703125,-6.34765625
7.6953125,-34.66796875,-44.921875,-313.4765625,-29.296875
7.69921875,-44.43359375,-39.55078125,-44.921875,-34.66796875
7.703125,-53.22265625,-41.50390625,246.58203125,-27.34375
7.70703125,-44.43359375,-46.875,687.5,-30.76171875
7.7109375,-43.9453125,-37.109375,167.96875,-25.390625
7.71484375,-13.671875,-21.484375,-294.43359375,-2.44140625
7.71875,22.94921875,-25.390625,127.9296875,-2.9296875
7.72265625,-19.53125,-44.921875,-223.14453125,-20.01953125
7.7265625,-78.125,-52.734375,-178.22265625,-16.11328125
7.73046875,-67.87109375,-51.26953125,569.3359375,-8.30078125
7.734375,-51.26953125,-44.921875,273.4375,-20.5078125
7.73828125,-44.43359375,-33.203125,-633.7890625,2.44140625
7.7421875,-34.66796875,-31.25,-677.24609375,26.3671875
7.74609375,-46.38671875,-41.50390625,60.05859375,33.69140625
7.75,-41.9921875,-41.9921875,136.23046875,31.25
7.75390625,-37.109375,-45.8984375,346.6796875,18.5546875
7.7578125,-36.62109375,-52.24609375,28.80859375,30.2734375
7.76171875,-41.015625,-51.7578125,-487.79296875,42.48046875
7.765625,-31.25,-41.015625,-247.0703125,43.9453125
7.76953125,-38.57421875,-39.55078125,-225.09765625,27.34375
7.7734375,-44.921875,-39.55078125,-334.9609375,50.78125
7.77734375,-32.71484375,-32.71484375,-83.0078125,78.125
7.78125,-30.2734375,-35.15625,-52.24609375,49.8046875
7.78515625,-39.0625,-42.96875,-90.8203125,28.80859375
7.7890625,-52.734375,-45.8984375,673.828125,41.015625
7.79296875,-49.8046875,-43.45703125,239.74609375,52.734375
7.796875,-39.55078125,-39.55078125,-430.17578125,38.57421875
7.80078125,-24.4140625,-34.1796875,458.49609375,37.59765625
7.8046875,-51.26953125,-43.9453125,256.34765625,38.57421875
7.80859375,-51.7578125,-36.1328125,-742.67578125,30.76171875
7.8125,-23.92578125,-20.99609375,-318.359375,38.0859375
7.81640625,-23.4375,-23.4375,-250.0,25.87890625
7.8203125,-25.87890625,-26.3671875,-282.71484375,18.5546875
7.82421875,-31.73828125,-32.2265625,627.9296875,41.9921875
7.828125,-54.19921875,-41.015625,9.765625,41.015625
7.83203125,-59.5703125,-37.109375,-383.7890625,35.15625
7.8359375,-34.1796875,-32.71484375,-307.6171875,46.38671875
7.83984375,-15.625,-36.1328125,-172.8515625,60.05859375
7.84375,-21.484375,-39.55078125,179.6875,55.6640625
7.84765625,-25.87890625,-40.0390625,579.1015625,22.94921875
7.8515625,-27.34375,-41.015625,847.65625,28.3203125
7.85546875,-36.1328125,-40.52734375,-145.5078125,39.55078125
7.859375,-40.0390625,-36.62109375,-669.921875,42.48046875
7.86328125,-37.109375,-41.015625,-387.6953125,42.48046875
7.8671875,-37.109375,-50.29296875,-350.5859375,46.875
7.87109375,-46.38671875,-41.9921875,101.5625,44.921875
7.875,-26.3671875,-32.2265625,241.69921875,44.43359375
7.87890625,-35.15625,-41.50390625,-38.57421875,12.6953125
7.8828125,-49.8046875,-46.38671875,-442.3828125,-8.7890625
7.88671875,-54.19921875,-41.9921875,-223.6328125,24.4140625
7.890625,-57.6171875,-40.52734375,103.515625,47.36328125
7.89453125,-43.45703125,-30.2734375,390.625,36.62109375
7.8984375,-46.875,-35.64453125,655.76171875,13.671875
7.90234375,-39.55078125,-32.71484375,-35.15625,37.109375
7.90625,-22.4609375,-27.83203125,-15.13671875,73.73046875
7.91015625,-29.296875,-36.62109375,-352.5390625,41.015625
7.9140625,-57.6171875,-37.59765625,-686.5234375,14.6484375
7.91796875,-35.15625,-36.62109375,132.8125,42.48046875
7.921875,-14.16015625,-41.50390625,266.6015625,46.38671875
7.92578125,-39.0625,-41.015625,-378.41796875,38.57421875
7.9296875,-43.9453125,-28.80859375,-361.328125,35.64453125
7.93359375,-46.875,-25.390625,49.31640625,30.76171875
7.9375,-38.0859375,-29.78515625,70.3125,27.34375
7.94140625,-24.90234375,-23.4375,645.99609375,41.9921875
7.9453125,-9.27734375,-20.99609375,173.33984375,10.7421875
7.94921875,-7.32421875,-26.85546875,-599.609375,-2.44140625
7.953125,-20.01953125,-11.71875,-205.078125,28.80859375
7.95703125,-11.23046875,-4.39453125,55.17578125,27.34375
7.9609375,-23.4375,-34.66796875,-386.71875,5.37109375
7.96484375,-41.015625,-41.9921875,99.609375,-5.859375
7.96875,-42.48046875,-31.25,328.125,2.9296875
7.97265625,-53.7109375,-36.1328125,-251.46484375,-7.32421875
7.9765625,-34.66796875,-28.3203125,-324.21875,-6.34765625
7.98046875,-19.53125,-21.97265625,-124.0234375,26.3671875
7.984375,-40.0390625,-26.3671875,11.71875,44.921875
7.98828125,-33.203125,-26.85546875,457.51953125,50.29296875
7.9921875,-23.92578125,-31.73828125,-110.83984375,32.71484375
7.99609375,-48.828125,-31.25,-554.6875,13.671875
8.0,-40.0390625,-26.3671875,41.50390625,8.7890625
8.00390625,-18.5546875,-27.83203125,-291.015625,22.94921875
8.0078125,-20.5078125,-34.1796875,-110.83984375,52.24609375
8.01171875,-46.875,-36.1328125,454.1015625,60.546875
8.015625,-64.94140625,-33.69140625,-338.8671875,51.7578125
8.01953125,-43.45703125,-36.1328125,-346.19140625,33.203125
8.0234375,-34.1796875,-33.203125,169.43359375,32.2265625
8.02734375,-18.5546875,-29.78515625,-83.0078125,37.59765625
8.03125,-11.23046875,-23.92578125,-187.98828125,15.13671875
8.03515625,-26.3671875,-22.4609375,393.06640625,18.5546875
8.0390625,-24.90234375,-30.76171875,60.546875,27.83203125
8.04296875,-3.90625,-32.71484375,-543.9453125,16.6015625
8.046875,-15.13671875,-36.62109375,-177.24609375,19.53125
8.05078125,-43.45703125,-30.76171875,-136.71875,35.64453125
8.0546875,-61.5234375,-29.296875,-362.79296875,25.87890625
8.05859375,-52.734375,-33.203125,40.0390625,12.6953125
8.0625,-40.52734375,-30.2734375,188.4765625,18.06640625
8.06640625,-30.76171875,-31.25,2.9296875,-3.41796875
8.0703125,-30.76171875,-31.73828125,-233.3984375,-9.27734375
8.07421875,-31.73828125,-31.73828125,-222.65625,11.71875
8.078125,-27.83203125,-32.71484375,16.11328125,10.25390625
8.08203125,-24.90234375,-33.203125,708.49609375,23.92578125
