Timestamp,TP9,AF7,AF8,TP10
0.00390625,47.36328125,-10.25390625,-19.53125,-15.13671875
0.0078125,48.828125,-21.484375,-22.94921875,-16.11328125
0.01171875,73.2421875,-28.80859375,-22.4609375,-41.50390625
0.015625,62.01171875,-16.6015625,-29.78515625,-50.29296875
0.01953125,30.76171875,-13.18359375,-39.55078125,-47.36328125
0.0234375,24.90234375,-8.30078125,-27.34375,-51.7578125
0.02734375,18.5546875,-10.7421875,-43.45703125,-34.1796875
0.03125,38.0859375,-17.08984375,-53.7109375,-2.44140625
0.03515625,23.92578125,-19.04296875,-21.97265625,-14.16015625
0.0390625,-8.7890625,-17.08984375,-11.71875,-26.85546875
0.04296875,-4.39453125,-7.8125,-24.90234375,-13.18359375
0.046875,-32.2265625,-6.8359375,-27.34375,-19.04296875
0.05078125,-57.6171875,-13.671875,-14.6484375,-33.69140625
0.0546875,-55.6640625,-21.97265625,-18.5546875,-43.9453125
0.05859375,-65.91796875,-31.25,-20.01953125,-47.8515625
0.0625,-59.5703125,-34.66796875,-7.8125,-34.1796875
0.06640625,-50.78125,-35.15625,-10.25390625,-13.18359375
0.0703125,-72.265625,-39.55078125,-19.53125,-49.31640625
0.07421875,-106.93359375,-37.109375,-25.87890625,-81.54296875
0.078125,-115.72265625,-25.87890625,-26.85546875,-56.640625
0.08203125,-116.2109375,-17.08984375,-26.3671875,-31.73828125
0.0859375,-115.72265625,-17.578125,-42.96875,-7.32421875
0.08984375,-119.140625,-27.83203125,-44.921875,43.9453125
0.09375,-125.9765625,-32.2265625,-21.97265625,69.82421875
0.09765625,-124.0234375,-32.2265625,-20.01953125,53.22265625
0.1015625,-123.53515625,-26.3671875,-20.01953125,56.640625
0.10546875,-143.06640625,-14.6484375,-6.34765625,62.5
0.109375,-161.62109375,-14.6484375,0.0,59.5703125
0.11328125,-156.73828125,-18.5546875,-6.34765625,29.78515625
0.1171875,-127.9296875,-22.94921875,-13.18359375,25.87890625
0.12109375,-110.3515625,-24.4140625,-14.16015625,57.12890625
0.125,-123.53515625,-22.4609375,-20.01953125,52.734375
0.12890625,-108.88671875,-20.99609375,-21.97265625,36.1328125
0.1328125,-80.56640625,-23.92578125,-21.97265625,37.109375
0.13671875,-91.30859375,-32.2265625,-26.3671875,-1.46484375
0.140625,-87.890625,-37.109375,-20.99609375,-36.62109375
0.14453125,-54.6875,-32.71484375,-11.23046875,-7.8125
0.1484375,-43.9453125,-25.390625,-6.34765625,5.37109375
0.15234375,-43.9453125,-26.85546875,-25.87890625,-4.39453125
0.15625,-52.24609375,-30.2734375,-43.9453125,-21.97265625
0.16015625,-68.359375,-31.25,-25.87890625,-40.52734375
0.1640625,-55.17578125,-30.2734375,-1.46484375,-49.31640625
0.16796875,-33.69140625,-26.3671875,-0.48828125,-47.36328125
0.171875,-52.24609375,-22.94921875,-9.27734375,-60.05859375
0.17578125,-76.66015625,-22.4609375,-9.765625,-77.1484375
0.1796875,-75.1953125,-23.92578125,-15.13671875,-81.54296875
0.18359375,-67.87109375,-16.6015625,-17.578125,-73.2421875
0.1875,-77.1484375,-12.20703125,-23.4375,-81.0546875
0.19140625,-102.05078125,-16.11328125,-23.4375,-101.07421875
0.1953125,-85.44921875,-12.6953125,-16.6015625,-102.5390625
0.19921875,-64.94140625,-15.625,-14.6484375,-104.98046875
0.203125,-73.73046875,-11.71875,-19.04296875,-81.0546875
0.20703125,-62.01171875,-8.30078125,-22.94921875,-83.49609375
0.2109375,-52.734375,-10.7421875,-22.4609375,-100.5859375
0.21484375,-88.8671875,-15.625,-22.94921875,-115.72265625
0.21875,-116.2109375,-20.99609375,-24.90234375,-130.37109375
0.22265625,-99.609375,-15.625,-24.90234375,-115.72265625
0.2265625,-103.515625,-11.71875,-19.53125,-118.65234375
0.23046875,-149.4140625,-14.16015625,-17.08984375,-152.34375
0.234375,-174.8046875,-16.11328125,-17.08984375,-171.875
0.23828125,-183.10546875,-16.11328125,-17.08984375,-179.6875
0.2421875,-211.9140625,-14.6484375,-27.83203125,-205.078125
0.24609375,-217.28515625,-19.04296875,-30.76171875,-216.30859375
0.25,-177.734375,-26.85546875,-40.0390625,-225.5859375
0.25390625,-182.6171875,-13.671875,-66.89453125,-242.67578125
0.2578125,-213.37890625,-7.8125,-52.734375,-242.67578125
0.26171875,-206.54296875,-11.71875,-19.53125,-245.60546875
0.265625,-200.1953125,-12.20703125,-42.96875,-257.8125
0.26953125,-226.5625,-25.390625,-70.3125,-286.62109375
0.2734375,-238.28125,-29.78515625,-74.70703125,-295.8984375
0.27734375,-233.88671875,-26.85546875,-85.44921875,-280.76171875
0.28125,-206.54296875,-30.76171875,-90.33203125,-260.25390625
0.28515625,-190.91796875,-27.34375,-88.8671875,-258.7890625
0.2890625,-200.68359375,-26.3671875,-80.56640625,-270.01953125
0.29296875,-198.73046875,-23.92578125,-67.3828125,-238.76953125
0.296875,-166.50390625,-20.5078125,-72.265625,-225.09765625
0.30078125,-124.0234375,-23.4375,-88.8671875,-225.09765625
0.3046875,-126.953125,-21.484375,-79.1015625,-187.98828125
0.30859375,-142.578125,-21.484375,-63.4765625,-177.24609375
0.3125,-126.953125,-17.578125,-70.80078125,-173.33984375
0.31640625,-97.65625,-12.6953125,-76.66015625,-139.16015625
0.3203125,-90.33203125,-20.99609375,-66.89453125,-86.42578125
0.32421875,-75.1953125,-31.73828125,-59.08203125,-33.203125
0.328125,-61.03515625,-27.34375,-65.91796875,-23.92578125
0.33203125,-43.9453125,-25.390625,-80.078125,-23.4375
0.3359375,-20.01953125,-23.4375,-81.54296875,1.46484375
0.33984375,-29.296875,-14.16015625,-68.84765625,11.71875
0.34375,-31.25,-15.13671875,-68.359375,-10.25390625
0.34765625,-10.7421875,-18.06640625,-73.2421875,-3.90625
0.3515625,-0.9765625,-13.671875,-75.68359375,18.5546875
0.35546875,-9.765625,-7.32421875,-74.70703125,39.55078125
0.359375,-1.46484375,-8.7890625,-60.546875,69.3359375
0.36328125,18.5546875,-17.08984375,-54.19921875,83.49609375
0.3671875,21.484375,-15.13671875,-51.26953125,100.09765625
0.37109375,23.92578125,-9.27734375,-53.7109375,114.2578125
0.375,24.4140625,-12.6953125,-60.546875,127.44140625
0.37890625,31.25,-14.6484375,-56.15234375,154.78515625
0.3828125,46.38671875,-17.08984375,-57.6171875,166.015625
0.38671875,49.31640625,-17.578125,-64.94140625,158.203125
0.390625,55.6640625,-12.6953125,-58.10546875,160.15625
0.39453125,66.89453125,-10.7421875,-50.78125,165.0390625
0.3984375,75.1953125,-18.5546875,-54.19921875,155.2734375
0.40234375,71.2890625,-24.90234375,-54.19921875,138.18359375
0.40625,59.5703125,-17.08984375,-43.45703125,116.2109375
0.41015625,46.38671875,-14.6484375,-34.66796875,103.02734375
0.4140625,32.71484375,-12.6953125,-41.9921875,98.14453125
0.41796875,27.83203125,-10.7421875,-52.734375,74.21875
0.421875,39.0625,-20.5078125,-39.55078125,52.24609375
0.42578125,47.8515625,-22.4609375,-32.71484375,46.38671875
0.4296875,32.71484375,-16.6015625,-41.50390625,26.85546875
0.43359375,34.66796875,-12.6953125,-39.55078125,22.94921875
0.4375,26.3671875,-8.7890625,-42.96875,31.25
0.44140625,6.8359375,-7.32421875,-47.8515625,25.390625
0.4453125,28.3203125,-14.16015625,-34.66796875,14.6484375
0.44921875,43.45703125,-21.484375,-27.34375,22.4609375
0.453125,33.203125,-20.5078125,-27.34375,18.5546875
0.45703125,15.13671875,-20.99609375,-30.2734375,23.92578125
0.4609375,-2.44140625,-23.4375,-36.1328125,31.73828125
0.46484375,-0.48828125,-27.34375,-43.45703125,14.6484375
0.46875,12.20703125,-29.296875,-46.38671875,19.04296875
0.47265625,23.4375,-25.87890625,-54.6875,32.71484375
0.4765625,-10.25390625,-21.484375,-53.7109375,28.3203125
0.48046875,-36.62109375,-20.5078125,-34.1796875,10.7421875
0.484375,-16.11328125,-28.3203125,-19.53125,5.859375
0.48828125,-10.25390625,-28.3203125,-25.390625,16.6015625
0.4921875,-13.671875,-24.4140625,-29.78515625,22.94921875
0.49609375,-26.3671875,-30.2734375,-32.71484375,7.8125
0.5,-43.9453125,-26.3671875,-38.57421875,6.8359375
0.50390625,-41.9921875,-26.3671875,-49.8046875,13.671875
0.5078125,-41.50390625,-35.15625,-50.29296875,15.13671875
0.51171875,-40.52734375,-30.76171875,-42.96875,32.71484375
0.515625,-35.15625,-27.83203125,-42.48046875,40.0390625
0.51953125,-26.3671875,-31.25,-38.0859375,45.41015625
0.5234375,-25.87890625,-36.62109375,-46.875,78.125
0.52734375,-26.85546875,-33.69140625,-58.10546875,69.3359375
0.53125,-11.71875,-25.87890625,-46.875,36.1328125
0.53515625,5.37109375,-28.3203125,-37.59765625,33.203125
0.5390625,-15.625,-32.2265625,-34.66796875,39.0625
0.54296875,-43.45703125,-33.69140625,-36.62109375,48.828125
0.546875,-45.41015625,-30.2734375,-38.57421875,54.19921875
0.55078125,-30.76171875,-24.90234375,-38.0859375,46.875
0.5546875,-24.4140625,-23.4375,-38.0859375,40.0390625
0.55859375,-32.71484375,-27.83203125,-35.64453125,36.62109375
0.5625,-30.2734375,-27.83203125,-36.62109375,31.73828125
0.56640625,-28.80859375,-24.4140625,-28.80859375,26.3671875
0.5703125,-35.64453125,-23.4375,-27.83203125,20.5078125
0.57421875,-37.109375,-22.4609375,-36.1328125,15.625
0.578125,-27.83203125,-18.06640625,-29.78515625,14.6484375
0.58203125,-24.4140625,-15.625,-20.99609375,10.25390625
0.5859375,-28.3203125,-20.99609375,-23.4375,-6.34765625
0.58984375,-32.71484375,-22.4609375,-28.80859375,-15.625
0.59375,-20.01953125,-17.578125,-38.0859375,-12.20703125
0.59765625,-0.48828125,-11.23046875,-35.15625,0.48828125
0.6015625,-6.34765625,-12.6953125,-23.92578125,4.39453125
0.60546875,-26.3671875,-23.4375,-28.80859375,-6.34765625
0.609375,-38.0859375,-26.3671875,-26.3671875,-21.97265625
0.61328125,-49.31640625,-24.4140625,-15.625,-26.3671875
0.6171875,-42.96875,-24.90234375,-12.20703125,-23.92578125
0.62109375,-39.0625,-29.296875,-16.6015625,-51.26953125
0.625,-46.38671875,-24.4140625,-13.18359375,-58.59375
0.62890625,-49.31640625,-16.11328125,-21.97265625,-48.828125
0.6328125,-37.59765625,-17.578125,-33.203125,-56.15234375
0.63671875,-34.1796875,-20.01953125,-24.90234375,-55.17578125
0.640625,-38.0859375,-21.484375,-21.97265625,-67.3828125
0.64453125,-33.203125,-23.4375,-23.4375,-61.5234375
0.6484375,-32.71484375,-25.390625,-23.92578125,-49.8046875
0.65234375,-37.109375,-24.4140625,-29.296875,-60.05859375
0.65625,-41.9921875,-19.53125,-22.94921875,-72.75390625
0.66015625,-43.9453125,-19.53125,-16.6015625,-80.078125
0.6640625,-41.50390625,-15.13671875,-17.08984375,-71.2890625
0.66796875,-33.69140625,-10.25390625,-7.32421875,-58.10546875
0.671875,-35.15625,-16.6015625,-9.27734375,-64.94140625
0.67578125,-30.2734375,-21.97265625,-22.94921875,-79.1015625
0.6796875,-22.94921875,-24.90234375,-25.390625,-81.0546875
0.68359375,-41.015625,-24.90234375,-14.16015625,-84.9609375
0.6875,-62.01171875,-19.53125,-9.27734375,-71.77734375
0.69140625,-63.4765625,-16.11328125,-15.13671875,-83.49609375
0.6953125,-52.734375,-19.53125,-13.18359375,-105.46875
0.69921875,-36.62109375,-23.4375,-15.625,-97.65625
0.703125,-35.15625,-21.484375,-33.203125,-103.02734375
0.70703125,-47.36328125,-20.01953125,-46.38671875,-108.88671875
0.7109375,-46.38671875,-20.01953125,-32.71484375,-99.609375
0.71484375,-29.78515625,-20.5078125,-14.6484375,-91.30859375
0.71875,-8.7890625,-18.06640625,-9.765625,-98.6328125
0.72265625,-17.578125,-26.85546875,-32.71484375,-115.72265625
0.7265625,-61.5234375,-45.8984375,-48.828125,-90.33203125
0.73046875,-83.0078125,-48.828125,-40.0390625,-85.9375
0.734375,-81.54296875,-41.015625,-32.2265625,-126.46484375
0.73828125,-80.56640625,-36.1328125,-29.296875,-127.9296875
0.7421875,-77.63671875,-35.64453125,-28.3203125,-111.328125
0.74609375,-66.40625,-38.57421875,-26.85546875,-110.3515625
0.75,-51.7578125,-35.64453125,-31.73828125,-107.421875
0.75390625,-54.6875,-33.203125,-35.15625,-94.7265625
0.7578125,-63.4765625,-29.296875,-30.76171875,-95.21484375
0.76171875,-52.734375,-23.92578125,-41.50390625,-88.37890625
0.765625,-39.55078125,-20.99609375,-48.828125,-88.8671875
0.76953125,-38.57421875,-24.4140625,-25.390625,-94.7265625
0.7734375,-38.0859375,-26.85546875,-14.16015625,-85.9375
0.77734375,-39.0625,-22.4609375,-16.11328125,-75.68359375
0.78125,-33.69140625,-19.04296875,-11.71875,-77.63671875
0.78515625,-23.92578125,-20.5078125,-16.11328125,-83.49609375
0.7890625,-28.3203125,-21.484375,-32.2265625,-77.63671875
0.79296875,-32.71484375,-19.04296875,-33.69140625,-69.82421875
0.796875,-29.78515625,-13.671875,-23.92578125,-67.3828125
0.80078125,-26.3671875,-10.7421875,-20.5078125,-56.15234375
0.8046875,-26.85546875,-9.765625,-19.53125,-43.9453125
0.80859375,-20.99609375,-8.30078125,-27.34375,-37.59765625
0.8125,-9.765625,-13.671875,-24.90234375,-32.71484375
0.81640625,0.0,-12.6953125,-21.97265625,-48.828125
0.8203125,-0.9765625,-2.9296875,-40.0390625,-69.82421875
0.82421875,-22.94921875,-1.953125,-40.0390625,-57.12890625
0.828125,-21.484375,-1.953125,-24.90234375,-42.96875
0.83203125,0.9765625,-3.41796875,-25.390625,-48.33984375
0.8359375,6.8359375,-14.16015625,-21.484375,-47.36328125
0.83984375,-26.3671875,-16.6015625,-14.6484375,-38.57421875
0.84375,-82.51953125,-10.7421875,-22.4609375,-32.2265625
0.84765625,-85.9375,-9.765625,-22.4609375,-42.96875
0.8515625,-70.3125,-8.30078125,-24.4140625,-48.33984375
0.85546875,-78.125,-10.7421875,-28.3203125,-47.36328125
0.859375,-79.1015625,-14.16015625,-20.5078125,-27.34375
0.86328125,-76.66015625,-15.625,-19.53125,-18.5546875
0.8671875,-71.2890625,-15.625,-20.5078125,-45.41015625
0.87109375,-63.4765625,-11.71875,-24.90234375,-57.12890625
0.875,-70.3125,-11.71875,-38.57421875,-82.03125
0.87890625,-69.3359375,-6.34765625,-35.15625,-98.6328125
0.8828125,-50.78125,-13.18359375,-19.04296875,-99.609375
0.88671875,-40.0390625,-19.53125,-6.8359375,-104.98046875
0.890625,-43.45703125,-13.18359375,-8.7890625,-131.34765625
0.89453125,-52.24609375,-18.06640625,-13.18359375,-133.30078125
0.8984375,-48.33984375,-22.4609375,-13.671875,-99.609375
0.90234375,-37.59765625,-14.16015625,-21.97265625,-84.9609375
0.90625,-53.22265625,-6.34765625,-19.53125,-86.42578125
0.91015625,-62.98828125,-12.20703125,-15.13671875,-100.5859375
0.9140625,-52.24609375,-18.5546875,-12.6953125,-64.94140625
0.91796875,-36.62109375,-14.6484375,-7.32421875,63.96484375
0.921875,-18.06640625,-11.23046875,-9.765625,499.51171875
0.92578125,1.953125,-12.6953125,-11.71875,919.43359375
0.9296875,26.85546875,-14.16015625,-8.7890625,965.33203125
0.93359375,63.96484375,-17.578125,-8.30078125,969.23828125
0.9375,83.984375,-18.5546875,-3.41796875,950.68359375
0.94140625,62.5,-15.625,-2.9296875,858.3984375
0.9453125,23.92578125,-16.11328125,-7.8125,819.3359375
0.94921875,26.3671875,-13.18359375,-18.5546875,794.43359375
0.953125,65.4296875,-19.53125,-11.23046875,779.78515625
0.95703125,78.61328125,-22.4609375,-1.953125,762.20703125
0.9609375,77.63671875,-19.04296875,-8.7890625,728.02734375
0.96484375,91.30859375,-16.11328125,-22.4609375,688.4765625
0.96875,116.2109375,-7.8125,-26.3671875,631.34765625
0.97265625,126.46484375,-8.30078125,-24.90234375,592.7734375
0.9765625,111.328125,-11.71875,-28.3203125,556.15234375
0.98046875,108.88671875,-11.23046875,-25.87890625,531.25
0.984375,121.58203125,-7.32421875,-25.87890625,505.37109375
0.98828125,142.578125,-13.18359375,-36.1328125,480.46875
0.9921875,124.0234375,-29.296875,-36.1328125,460.9375
0.99609375,72.75390625,-23.4375,-12.20703125,435.546875
1.0,58.10546875,-3.41796875,-5.859375,409.66796875
1.00390625,54.6875,2.9296875,-21.484375,354.00390625
1.0078125,34.66796875,-18.5546875,-20.01953125,334.9609375
1.01171875,37.59765625,-34.66796875,-5.859375,346.19140625
1.015625,41.015625,-19.53125,-11.71875,330.078125
1.01953125,32.2265625,-7.32421875,-31.25,326.66015625
1.0234375,12.20703125,-6.34765625,-42.96875,291.9921875
1.02734375,-14.16015625,-16.11328125,-28.80859375,266.11328125
1.03125,4.8828125,-18.5546875,-16.6015625,267.08984375
1.03515625,23.4375,-19.04296875,-11.23046875,266.6015625
1.0390625,19.53125,-31.73828125,-6.34765625,247.55859375
1.04296875,-11.71875,-30.2734375,-7.32421875,223.6328125
1.046875,-17.08984375,-13.18359375,-23.4375,215.33203125
1.05078125,-4.39453125,-8.30078125,-18.06640625,196.2890625
1.0546875,-17.578125,-13.18359375,-16.6015625,177.24609375
1.05859375,-13.18359375,-10.25390625,-23.92578125,155.2734375
1.0625,-14.6484375,-12.20703125,-0.48828125,138.18359375
1.06640625,-20.5078125,-16.6015625,8.30078125,178.22265625
1.0703125,-27.83203125,-18.5546875,-5.859375,229.98046875
1.07421875,-55.17578125,-23.4375,-14.16015625,219.7265625
1.078125,-47.8515625,-30.76171875,-11.71875,247.0703125
1.08203125,-33.203125,-39.0625,-14.6484375,282.71484375
1.0859375,-47.8515625,-30.2734375,-21.484375,255.37109375
1.08984375,-62.5,-12.6953125,-26.3671875,227.5390625
1.09375,-55.6640625,-8.30078125,-31.73828125,223.6328125
1.09765625,-35.64453125,-12.20703125,-18.06640625,225.09765625
1.1015625,-26.85546875,-10.25390625,-5.859375,201.66015625
1.10546875,-34.66796875,-16.6015625,-5.859375,160.64453125
1.109375,-54.6875,-16.6015625,-7.32421875,144.53125
1.11328125,-64.453125,-10.25390625,-18.06640625,124.0234375
1.1171875,-57.6171875,-8.7890625,-17.08984375,99.609375
1.12109375,-59.08203125,-2.44140625,-9.27734375,107.421875
1.125,-66.89453125,-6.34765625,-5.37109375,110.83984375
1.12890625,-68.84765625,-11.71875,2.9296875,100.5859375
1.1328125,-64.94140625,-14.16015625,4.39453125,74.21875
1.13671875,-66.89453125,-15.13671875,0.9765625,55.6640625
1.140625,-64.94140625,-19.04296875,0.0,46.875
1.14453125,-55.6640625,-19.53125,-6.34765625,37.109375
1.1484375,-39.0625,-12.20703125,-12.20703125,32.71484375
1.15234375,-30.76171875,-7.8125,-21.484375,28.3203125
1.15625,-25.390625,-5.37109375,-29.296875,31.25
1.16015625,-15.625,-5.859375,-20.99609375,34.1796875
1.1640625,-21.484375,-19.04296875,-3.41796875,24.90234375
1.16796875,-31.25,-23.4375,5.37109375,4.39453125
1.171875,-39.0625,-8.30078125,-3.41796875,-9.765625
1.17578125,-44.43359375,-6.34765625,-9.27734375,-73.73046875
1.1796875,-30.2734375,-15.13671875,-11.23046875,-129.39453125
1.18359375,-15.625,-17.578125,-21.484375,-130.37109375
1.1875,-28.80859375,-12.20703125,-30.2734375,-152.83203125
1.19140625,-42.48046875,-11.23046875,-35.15625,-172.8515625
1.1953125,-36.62109375,-7.32421875,-38.0859375,-151.3671875
1.19921875,-32.71484375,-0.9765625,-34.1796875,-127.9296875
1.203125,-34.66796875,-2.44140625,-44.43359375,-144.53125
1.20703125,-28.3203125,-6.8359375,-60.05859375,-147.4609375
1.2109375,-42.96875,-10.7421875,-39.55078125,-136.71875
1.21484375,-55.17578125,-11.71875,-21.97265625,-113.28125
1.21875,-51.7578125,-15.625,-25.390625,-110.3515625
1.22265625,-50.29296875,-15.13671875,-29.78515625,-129.39453125
1.2265625,-50.78125,-15.13671875,-36.62109375,-112.3046875
1.23046875,-44.921875,-19.04296875,-30.2734375,-78.125
1.234375,-17.578125,-18.5546875,-17.08984375,-84.9609375
1.23828125,-16.11328125,-20.99609375,-27.83203125,-108.3984375
1.2421875,-44.43359375,-22.4609375,-38.0859375,-112.79296875
1.24609375,-41.015625,-11.23046875,-20.99609375,-102.05078125
1.25,-17.08984375,0.48828125,-25.390625,-97.16796875
1.25390625,-22.94921875,5.859375,-40.52734375,-102.5390625
1.2578125,-44.921875,0.0,-31.25,-105.95703125
1.26171875,-43.45703125,-4.8828125,-12.6953125,-96.19140625
1.265625,-34.66796875,-11.71875,-12.6953125,-86.42578125
1.26953125,-36.1328125,-13.18359375,-17.08984375,-83.0078125
1.2734375,-41.015625,-11.23046875,-18.06640625,-55.17578125
1.27734375,-30.2734375,-14.16015625,-15.13671875,-33.69140625
1.28125,-10.7421875,-13.18359375,-12.20703125,-52.734375
1.28515625,-13.18359375,-13.671875,-24.4140625,-74.70703125
1.2890625,-47.8515625,-14.16015625,-26.3671875,-78.125
1.29296875,-67.3828125,-1.46484375,-23.4375,-73.73046875
1.296875,-65.4296875,0.9765625,-29.296875,-61.03515625
1.30078125,-68.359375,-16.6015625,-20.01953125,-64.94140625
1.3046875,-71.77734375,-21.97265625,-12.6953125,-78.125
1.30859375,-76.171875,-32.71484375,-11.71875,-71.77734375
1.3125,-66.89453125,-37.59765625,-6.34765625,-57.12890625
1.31640625,-35.64453125,-28.3203125,0.0,-40.0390625
1.3203125,-27.83203125,-19.53125,-1.953125,-42.48046875
1.32421875,-47.36328125,-13.18359375,-6.34765625,-44.921875
1.328125,-58.59375,-14.16015625,-14.16015625,-55.6640625
1.33203125,-50.78125,-9.765625,-20.01953125,-64.453125
1.3359375,-46.875,-13.671875,-25.87890625,-48.33984375
1.33984375,-49.31640625,-19.53125,-24.4140625,-37.59765625
1.34375,-36.1328125,-12.20703125,-16.6015625,-48.33984375
1.34765625,-39.55078125,-12.6953125,-16.11328125,-70.80078125
1.3515625,-44.921875,-23.4375,-12.6953125,-81.0546875
1.35546875,-47.8515625,-17.578125,-20.01953125,-77.63671875
1.359375,-56.15234375,-9.765625,-28.3203125,-61.03515625
1.36328125,-51.26953125,-17.578125,-17.578125,-45.8984375
1.3671875,-65.4296875,-18.5546875,-1.953125,-53.22265625
1.37109375,-77.1484375,-15.13671875,-1.46484375,-62.98828125
1.375,-77.1484375,-18.06640625,-6.34765625,-60.546875
1.37890625,-60.546875,-21.97265625,-4.39453125,-44.921875
1.3828125,-35.15625,-25.87890625,-4.8828125,-23.4375
1.38671875,-36.62109375,-18.5546875,-9.27734375,-22.94921875
1.390625,-47.36328125,-4.8828125,-10.25390625,-24.4140625
1.39453125,-58.59375,-1.46484375,-8.30078125,-13.671875
1.3984375,-62.98828125,-5.859375,-6.8359375,-20.01953125
1.40234375,-72.265625,-8.7890625,-0.9765625,-40.0390625
1.40625,-84.9609375,-4.8828125,6.8359375,-31.73828125
1.41015625,-81.0546875,-4.8828125,-4.8828125,-17.08984375
1.4140625,-68.84765625,-11.71875,-15.13671875,-13.18359375
1.41796875,-64.94140625,-18.5546875,-9.27734375,-18.5546875
1.421875,-74.70703125,-16.6015625,7.8125,-37.109375
1.42578125,-93.26171875,-13.18359375,11.71875,-41.50390625
1.4296875,-99.609375,-9.27734375,1.46484375,-43.45703125
1.43359375,-103.02734375,-7.8125,-4.8828125,-34.66796875
1.4375,-103.515625,-13.18359375,-5.37109375,-31.73828125
1.44140625,-99.12109375,-9.27734375,-8.30078125,-44.921875
1.4453125,-99.609375,-9.765625,-10.7421875,-50.78125
1.44921875,-104.00390625,-14.6484375,-22.4609375,-39.55078125
1.453125,-104.98046875,-17.578125,-26.85546875,-23.4375
1.45703125,-87.890625,-13.671875,-26.3671875,-18.06640625
1.4609375,-88.8671875,-14.6484375,-33.69140625,-9.765625
1.46484375,-89.84375,-22.94921875,-4.39453125,14.6484375
1.46875,-85.44921875,-20.5078125,20.01953125,40.52734375
1.47265625,-99.12109375,-20.5078125,11.71875,48.33984375
1.4765625,-95.703125,-24.90234375,3.90625,42.48046875
1.48046875,-59.08203125,-32.2265625,-4.8828125,73.2421875
1.484375,-43.9453125,-28.3203125,-14.6484375,92.7734375
1.48828125,-69.82421875,-15.13671875,-9.27734375,79.1015625
1.4921875,-72.265625,-8.7890625,-7.8125,73.2421875
1.49609375,-56.640625,-10.25390625,-8.7890625,64.453125
1.5,-56.15234375,-11.71875,-5.37109375,52.24609375
1.50390625,-61.03515625,-10.7421875,-12.6953125,47.36328125
1.5078125,-65.4296875,-17.578125,-21.97265625,40.0390625
1.51171875,-63.4765625,-29.296875,-24.90234375,45.41015625
1.515625,-59.08203125,-25.87890625,-19.53125,62.01171875
1.51953125,-62.5,-15.625,-12.20703125,67.87109375
1.5234375,-65.4296875,-17.578125,-4.8828125,46.875
1.52734375,-66.40625,-26.3671875,1.953125,42.48046875
1.53125,-63.4765625,-22.4609375,-6.8359375,56.15234375
1.53515625,-54.6875,-24.90234375,-16.11328125,49.8046875
1.5390625,-54.6875,-31.73828125,-13.18359375,33.203125
1.54296875,-55.6640625,-35.64453125,-13.671875,21.97265625
1.546875,-45.41015625,-41.015625,-20.99609375,20.99609375
1.55078125,-34.1796875,-31.73828125,-24.4140625,19.53125
1.5546875,-45.41015625,-17.578125,-25.390625,0.0
1.55859375,-58.10546875,-23.92578125,-31.73828125,-19.04296875
1.5625,-57.12890625,-32.2265625,-27.83203125,-18.5546875
1.56640625,-57.6171875,-22.94921875,-13.18359375,-13.671875
1.5703125,-62.01171875,-25.87890625,-13.18359375,-23.92578125
1.57421875,-65.91796875,-24.90234375,-25.87890625,-23.4375
1.578125,-62.98828125,-17.578125,-30.76171875,-9.27734375
1.58203125,-57.6171875,-23.92578125,-19.04296875,-13.18359375
1.5859375,-61.5234375,-31.25,-26.85546875,-18.5546875
1.58984375,-68.359375,-33.69140625,-39.55078125,-24.4140625
1.59375,-69.82421875,-32.2265625,-33.69140625,-24.90234375
1.59765625,-62.01171875,-25.87890625,-25.390625,-24.90234375
1.6015625,-65.91796875,-14.6484375,-25.87890625,-44.43359375
1.60546875,-65.91796875,-20.5078125,-26.3671875,-41.50390625
1.609375,-51.26953125,-32.2265625,-18.5546875,-36.1328125
1.61328125,-44.921875,-32.2265625,-26.3671875,-52.24609375
1.6171875,-50.29296875,-30.2734375,-29.78515625,-45.8984375
1.62109375,-65.91796875,-25.87890625,-19.04296875,-45.8984375
1.625,-79.58984375,-23.4375,-15.13671875,-50.78125
1.62890625,-78.125,-20.99609375,-28.3203125,-51.7578125
1.6328125,-49.31640625,-17.08984375,-35.15625,-53.7109375
1.63671875,-57.12890625,-20.5078125,-20.01953125,-58.10546875
1.640625,-88.37890625,-25.87890625,-13.671875,-85.44921875
1.64453125,-57.6171875,-26.85546875,-19.53125,-58.59375
1.6484375,-43.45703125,-30.76171875,-23.4375,-25.87890625
1.65234375,-56.15234375,-32.71484375,-20.5078125,-55.17578125
1.65625,-51.26953125,-27.83203125,-17.08984375,-63.96484375
1.66015625,-47.8515625,-26.85546875,-15.625,-41.50390625
1.6640625,-29.78515625,-33.69140625,-16.6015625,-25.390625
1.66796875,-20.99609375,-34.66796875,-15.625,-12.6953125
1.671875,-18.06640625,-36.1328125,-12.6953125,-3.90625
1.67578125,-15.13671875,-37.109375,-13.18359375,10.25390625
1.6796875,-11.23046875,-34.66796875,-10.7421875,41.50390625
1.68359375,6.8359375,-27.83203125,-3.41796875,53.22265625
1.6875,2.44140625,-25.87890625,0.0,42.48046875
1.69140625,-2.9296875,-28.80859375,-4.39453125,60.546875
1.6953125,13.671875,-30.76171875,-10.25390625,71.77734375
1.69921875,27.34375,-29.296875,-9.27734375,74.70703125
1.703125,31.25,-29.78515625,-4.39453125,81.0546875
1.70703125,38.57421875,-27.34375,-5.37109375,75.68359375
1.7109375,41.50390625,-26.3671875,-8.30078125,78.61328125
1.71484375,44.921875,-28.80859375,-9.27734375,90.33203125
1.71875,57.6171875,-26.3671875,-1.953125,107.421875
1.72265625,51.7578125,-26.3671875,-0.9765625,114.74609375
1.7265625,51.7578125,-27.83203125,-6.34765625,116.2109375
1.73046875,61.03515625,-26.85546875,-2.9296875,125.0
1.734375,63.96484375,-26.3671875,-3.90625,132.8125
1.73828125,64.453125,-29.296875,-5.859375,126.46484375
1.7421875,60.05859375,-26.85546875,-0.9765625,115.234375
1.74609375,41.015625,-28.3203125,-0.48828125,105.46875
1.75,39.0625,-31.25,-1.46484375,97.16796875
1.75390625,46.875,-27.34375,-10.25390625,92.28515625
1.7578125,37.109375,-24.4140625,-6.34765625,103.02734375
1.76171875,41.015625,-31.25,-1.46484375,103.02734375
1.765625,56.640625,-30.2734375,-3.41796875,77.1484375
1.76953125,47.8515625,-18.5546875,-4.8828125,67.3828125
1.7734375,24.90234375,-11.23046875,-10.25390625,64.453125
1.77734375,21.484375,-13.18359375,-11.23046875,64.94140625
1.78125,36.62109375,-16.6015625,-11.23046875,70.3125
1.78515625,37.109375,-18.06640625,-10.7421875,66.40625
1.7890625,13.671875,-18.5546875,-19.04296875,58.59375
1.79296875,5.37109375,-19.53125,-26.3671875,56.15234375
1.796875,5.37109375,-15.13671875,-14.16015625,48.828125
1.80078125,0.0,-12.6953125,-7.8125,35.15625
1.8046875,-11.71875,-21.484375,-19.04296875,13.671875
1.80859375,-20.99609375,-24.4140625,-18.5546875,12.20703125
1.8125,-12.20703125,-22.94921875,-13.18359375,20.99609375
1.81640625,7.32421875,-30.76171875,-18.06640625,12.20703125
1.8203125,-3.41796875,-34.1796875,-18.06640625,10.25390625
1.82421875,-40.0390625,-33.203125,-17.08984375,7.8125
1.828125,-42.48046875,-31.73828125,-14.16015625,-1.953125
1.83203125,-18.5546875,-25.390625,-13.671875,1.953125
1.8359375,-2.44140625,-20.5078125,-24.4140625,0.48828125
1.83984375,-0.9765625,-20.99609375,-22.4609375,10.7421875
1.84375,-13.18359375,-19.53125,-13.671875,10.25390625
1.84765625,-11.71875,-13.18359375,-6.8359375,1.953125
1.8515625,-4.39453125,-8.7890625,-10.7421875,-1.953125
1.85546875,-17.578125,-11.23046875,-14.16015625,-15.13671875
1.859375,-16.11328125,-18.06640625,-17.08984375,-6.8359375
1.86328125,-5.859375,-20.99609375,-19.53125,17.578125
1.8671875,-15.625,-26.85546875,-21.97265625,21.484375
1.87109375,-31.25,-27.34375,-31.73828125,9.765625
1.875,-41.50390625,-18.5546875,-38.57421875,-4.39453125
1.87890625,-49.8046875,-21.97265625,-34.66796875,-22.94921875
1.8828125,-45.41015625,-27.83203125,-21.484375,-23.92578125
1.88671875,-42.96875,-25.87890625,-20.5078125,-15.13671875
1.890625,-51.26953125,-28.80859375,-19.53125,-9.765625
1.89453125,-49.31640625,-28.80859375,-14.6484375,-15.13671875
1.8984375,-37.109375,-22.94921875,-14.16015625,-22.94921875
1.90234375,-30.76171875,-20.99609375,-15.13671875,-22.94921875
1.90625,-31.73828125,-22.94921875,-20.01953125,-31.73828125
1.91015625,-36.1328125,-20.99609375,-18.5546875,-30.76171875
1.9140625,-31.73828125,-16.6015625,-22.94921875,-22.94921875
1.91796875,-26.85546875,-15.13671875,-25.87890625,-20.99609375
1.921875,-36.1328125,-16.6015625,-27.83203125,-41.50390625
1.92578125,-44.43359375,-17.578125,-28.80859375,-59.08203125
1.9296875,-38.0859375,-17.08984375,-27.83203125,-89.35546875
1.93359375,-31.25,-15.625,-28.3203125,-158.69140625
1.9375,-38.57421875,-15.13671875,-37.109375,-190.91796875
1.94140625,-48.33984375,-17.578125,-37.59765625,-183.59375
1.9453125,-41.50390625,-17.578125,-23.4375,-168.45703125
1.94921875,-29.78515625,-15.13671875,-21.97265625,-155.2734375
1.953125,-29.78515625,-14.6484375,-22.94921875,-158.69140625
1.95703125,-41.9921875,-16.11328125,-23.4375,-172.36328125
1.9609375,-51.7578125,-18.5546875,-26.85546875,-175.29296875
1.96484375,-55.17578125,-18.5546875,-28.3203125,-171.875
1.96875,-49.8046875,-16.11328125,-27.83203125,-165.0390625
1.97265625,-50.29296875,-18.06640625,-27.83203125,-173.828125
1.9765625,-60.546875,-22.94921875,-34.66796875,-170.8984375
1.98046875,-62.98828125,-24.90234375,-33.203125,-149.4140625
1.984375,-56.15234375,-20.5078125,-26.3671875,-134.27734375
1.98828125,-51.26953125,-19.53125,-24.90234375,-135.7421875
1.9921875,-62.5,-27.34375,-27.83203125,-140.13671875
1.99609375,-56.15234375,-23.4375,-25.87890625,-107.421875
2.0,-33.69140625,-17.578125,-24.4140625,-98.14453125
2.00390625,-41.9921875,-19.04296875,-32.71484375,-111.328125
2.0078125,-61.5234375,-19.53125,-37.59765625,-89.84375
2.01171875,-59.08203125,-18.5546875,-26.85546875,-92.28515625
2.015625,-48.828125,-26.3671875,-23.4375,-108.3984375
2.01953125,-62.01171875,-35.15625,-26.85546875,-129.8828125
2.0234375,-95.21484375,-32.71484375,-22.94921875,-146.484375
2.02734375,-104.98046875,-33.203125,-37.109375,-134.27734375
2.03125,-79.1015625,-32.2265625,-49.8046875,-126.46484375
2.03515625,-87.40234375,-27.34375,-36.1328125,-145.99609375
2.0390625,-130.859375,-31.73828125,-22.4609375,-150.390625
2.04296875,-155.2734375,-34.1796875,-12.6953125,-138.18359375
2.046875,-147.94921875,-31.25,-11.23046875,-146.97265625
2.05078125,-121.58203125,-26.3671875,-11.71875,-146.484375
2.0546875,-125.0,-27.34375,-13.18359375,-163.0859375
2.05859375,-144.53125,-25.87890625,-24.90234375,-174.8046875
2.0625,-128.90625,-14.16015625,-36.62109375,-161.62109375
2.06640625,-102.05078125,-18.06640625,-34.66796875,-158.203125
2.0703125,-103.515625,-26.3671875,-26.85546875,-156.25
2.07421875,-118.65234375,-32.2265625,-14.16015625,-149.90234375
2.078125,-123.046875,-42.96875,-12.6953125,-146.484375
2.08203125,-104.00390625,-41.50390625,-22.94921875,-136.71875
2.0859375,-89.84375,-29.296875,-33.69140625,-131.34765625
2.08984375,-103.02734375,-24.90234375,-34.66796875,-122.0703125
2.09375,-93.26171875,-21.97265625,-29.296875,-116.69921875
2.09765625,-83.0078125,-23.4375,-18.06640625,-120.60546875
2.1015625,-84.9609375,-30.76171875,-11.23046875,-111.81640625
2.10546875,-85.9375,-36.1328125,-13.671875,-115.72265625
2.109375,-100.5859375,-30.76171875,-16.11328125,-126.953125
2.11328125,-85.9375,-19.04296875,-25.390625,-122.0703125
2.1171875,-67.87109375,-23.4375,-30.2734375,-123.53515625
2.12109375,-83.0078125,-32.2265625,-25.87890625,-134.765625
2.125,-80.078125,-28.80859375,-19.53125,-125.0
2.12890625,-72.75390625,-31.25,-15.625,-112.3046875
2.1328125,-74.21875,-32.2265625,-21.484375,-124.0234375
2.13671875,-74.21875,-28.80859375,-31.73828125,-136.71875
2.140625,-76.66015625,-25.87890625,-39.55078125,-132.32421875
2.14453125,-75.1953125,-29.296875,-26.3671875,-118.1640625
2.1484375,-64.453125,-29.78515625,-13.671875,-115.234375
2.15234375,-54.19921875,-24.4140625,-17.08984375,-111.328125
2.15625,-41.50390625,-26.3671875,-21.97265625,-97.16796875
2.16015625,-46.875,-20.01953125,-17.578125,-93.75
2.1640625,-55.17578125,-16.6015625,-11.71875,-100.09765625
2.16796875,-45.8984375,-21.97265625,-16.6015625,-116.2109375
2.171875,-47.36328125,-21.97265625,-39.0625,-119.62890625
2.17578125,-49.8046875,-25.390625,-39.55078125,-119.140625
2.1796875,-35.64453125,-31.73828125,-9.765625,-117.1875
2.18359375,-26.85546875,-30.76171875,-4.39453125,-120.60546875
2.1875,-52.734375,-28.80859375,-11.71875,-94.23828125
2.19140625,-77.1484375,-24.90234375,-15.625,-21.97265625
2.1953125,-66.89453125,-21.484375,-6.8359375,31.25
2.19921875,-52.24609375,-20.5078125,-9.765625,41.015625
2.203125,-52.734375,-21.484375,-23.92578125,29.296875
2.20703125,-58.10546875,-20.99609375,-18.06640625,28.3203125
2.2109375,-58.59375,-21.484375,-9.27734375,29.78515625
2.21484375,-45.8984375,-22.94921875,-11.71875,36.1328125
2.21875,-49.8046875,-23.4375,-18.5546875,24.90234375
2.22265625,-63.4765625,-22.94921875,-19.04296875,-1.953125
2.2265625,-71.77734375,-30.2734375,-16.11328125,-7.8125
2.23046875,-62.01171875,-34.1796875,-8.7890625,8.7890625
2.234375,-43.9453125,-32.71484375,-12.6953125,8.30078125
2.23828125,-50.29296875,-31.25,-19.04296875,-14.6484375
2.2421875,-59.5703125,-29.78515625,-22.94921875,-29.78515625
2.24609375,-49.31640625,-34.1796875,-22.4609375,-18.5546875
2.25,-44.921875,-32.2265625,-21.97265625,-15.13671875
2.25390625,-60.546875,-31.25,-30.2734375,-18.5546875
2.2578125,-65.4296875,-32.2265625,-23.92578125,-22.4609375
2.26171875,-58.10546875,-27.34375,-22.94921875,-36.62109375
2.265625,-57.6171875,-28.3203125,-27.34375,-35.64453125
2.26953125,-71.2890625,-27.34375,-20.01953125,-40.0390625
2.2734375,-87.890625,-31.25,-21.484375,-55.17578125
2.27734375,-88.37890625,-32.71484375,-32.2265625,-65.4296875
2.28125,-77.1484375,-31.25,-33.203125,-50.29296875
2.28515625,-73.73046875,-32.71484375,-25.87890625,-39.55078125
2.2890625,-73.2421875,-29.78515625,-23.92578125,-39.0625
2.29296875,-62.98828125,-28.80859375,-24.4140625,-39.55078125
2.296875,-48.33984375,-27.83203125,-25.390625,-37.109375
2.30078125,-41.015625,-26.85546875,-32.2265625,-30.76171875
2.3046875,-56.640625,-31.73828125,-28.3203125,-32.71484375
2.30859375,-78.61328125,-38.0859375,-12.20703125,-29.78515625
2.3125,-75.68359375,-43.9453125,-3.41796875,-26.85546875
2.31640625,-68.359375,-37.59765625,-8.30078125,-35.15625
2.3203125,-79.1015625,-35.64453125,-19.04296875,-31.73828125
2.32421875,-72.75390625,-31.73828125,-21.97265625,-26.85546875
2.328125,-69.3359375,-19.04296875,-21.97265625,-38.0859375
2.33203125,-72.265625,-24.90234375,-18.06640625,-48.828125
2.3359375,-75.1953125,-32.71484375,-14.6484375,-53.22265625
2.33984375,-90.8203125,-30.2734375,-18.5546875,-56.640625
2.34375,-83.0078125,-32.2265625,-20.5078125,-68.359375
2.34765625,-71.77734375,-31.73828125,-18.5546875,-64.453125
2.3515625,-90.8203125,-23.92578125,-33.203125,-61.03515625
2.35546875,-98.6328125,-23.92578125,-50.29296875,-69.82421875
2.359375,-91.796875,-22.94921875,-31.73828125,-66.40625
2.36328125,-82.51953125,-19.04296875,-9.765625,-54.19921875
2.3671875,-83.0078125,-27.83203125,-14.16015625,-62.5
2.37109375,-88.8671875,-38.57421875,-20.99609375,-77.1484375
2.375,-85.44921875,-34.66796875,-18.06640625,-67.87109375
2.37890625,-69.82421875,-34.1796875,-18.5546875,-50.78125
2.3828125,-50.78125,-30.2734375,-20.5078125,-45.8984375
2.38671875,-45.8984375,-22.94921875,-9.27734375,-44.43359375
2.390625,-53.22265625,-31.73828125,-3.90625,-45.8984375
2.39453125,-56.640625,-32.2265625,-1.46484375,-50.29296875
2.3984375,-60.546875,-26.3671875,-2.9296875,-50.78125
2.40234375,-65.91796875,-25.87890625,-10.7421875,-69.3359375
2.40625,-69.3359375,-27.83203125,-13.671875,-76.66015625
2.41015625,-61.03515625,-26.85546875,-12.6953125,-63.4765625
2.4140625,-44.921875,-26.3671875,-14.16015625,-46.875
2.41796875,-49.31640625,-28.80859375,-25.390625,-56.640625
2.421875,-55.6640625,-32.2265625,-35.15625,-63.96484375
2.42578125,-47.8515625,-32.71484375,-24.90234375,-47.36328125
2.4296875,-61.5234375,-26.85546875,-19.53125,-46.38671875
2.43359375,-75.68359375,-20.01953125,-14.6484375,-57.6171875
2.4375,-75.68359375,-22.4609375,-21.97265625,-78.61328125
2.44140625,-82.51953125,-27.34375,-31.73828125,-86.9140625
2.4453125,-70.3125,-30.76171875,-18.06640625,-68.359375
2.44921875,-44.921875,-29.78515625,-3.41796875,-57.6171875
2.453125,-53.22265625,-32.71484375,-4.8828125,-65.91796875
2.45703125,-61.03515625,-39.55078125,-11.71875,-72.75390625
2.4609375,-58.59375,-35.15625,-15.625,-57.12890625
2.46484375,-63.96484375,-28.80859375,-24.4140625,-52.734375
2.46875,-66.89453125,-37.59765625,-24.4140625,-69.3359375
2.47265625,-71.77734375,-38.0859375,-24.90234375,-69.82421875
2.4765625,-67.87109375,-22.4609375,-20.01953125,-59.08203125
2.48046875,-60.546875,-26.85546875,-14.6484375,-47.8515625
2.484375,-57.12890625,-35.64453125,-25.390625,-51.26953125
2.48828125,-67.87109375,-27.34375,-23.92578125,-59.5703125
2.4921875,-76.171875,-24.90234375,-13.671875,-52.24609375
2.49609375,-62.5,-28.80859375,-10.7421875,-57.6171875
2.5,-62.5,-29.78515625,-13.671875,-70.3125
2.50390625,-76.66015625,-26.85546875,-16.11328125,-82.03125
2.5078125,-83.0078125,-29.78515625,-20.01953125,-91.796875
2.51171875,-77.1484375,-29.78515625,-14.16015625,-75.68359375
2.515625,-70.3125,-26.3671875,-13.18359375,-61.5234375
2.51953125,-71.77734375,-27.34375,-16.6015625,-65.4296875
2.5234375,-77.1484375,-26.3671875,-18.5546875,-70.3125
2.52734375,-75.1953125,-25.390625,-24.90234375,-62.98828125
2.53125,-51.26953125,-26.3671875,-26.3671875,-48.828125
2.53515625,-30.2734375,-36.1328125,-26.3671875,-43.45703125
2.5390625,-43.9453125,-32.71484375,-26.85546875,-46.38671875
2.54296875,-67.87109375,-25.390625,-14.16015625,-52.734375
2.546875,-58.10546875,-20.99609375,-8.30078125,-44.921875
2.55078125,-44.921875,-17.578125,-16.11328125,-43.45703125
2.5546875,-59.08203125,-20.99609375,-26.85546875,-56.640625
2.55859375,-77.63671875,-23.92578125,-26.85546875,-63.4765625
2.5625,-80.078125,-24.4140625,-22.4609375,-68.359375
2.56640625,-62.01171875,-25.390625,-20.5078125,-83.984375
2.5703125,-61.5234375,-22.94921875,-16.6015625,-88.37890625
2.57421875,-83.0078125,-20.01953125,-18.5546875,-88.8671875
2.578125,-79.58984375,-21.484375,-18.5546875,-80.56640625
2.58203125,-68.84765625,-24.90234375,-25.87890625,-75.68359375
2.5859375,-70.3125,-28.80859375,-32.71484375,-75.1953125
2.58984375,-78.125,-33.203125,-28.3203125,-70.3125
2.59375,-79.1015625,-28.3203125,-25.87890625,-73.2421875
2.59765625,-72.75390625,-27.83203125,-16.11328125,-62.01171875
2.6015625,-73.2421875,-28.3203125,-15.13671875,-53.22265625
2.60546875,-74.21875,-24.4140625,-22.94921875,-63.96484375
2.609375,-73.2421875,-21.97265625,-15.625,-66.89453125
2.61328125,-66.40625,-19.04296875,-11.23046875,-53.7109375
2.6171875,-53.7109375,-17.578125,-19.53125,-50.29296875
2.62109375,-55.6640625,-27.34375,-22.4609375,-48.33984375
2.625,-66.40625,-30.76171875,-24.90234375,-50.29296875
2.62890625,-60.05859375,-27.83203125,-18.5546875,-63.96484375
2.6328125,-61.03515625,-32.2265625,-10.7421875,-64.94140625
2.63671875,-76.66015625,-23.92578125,-18.06640625,-68.359375
2.640625,-85.44921875,-20.99609375,-21.484375,-71.77734375
2.64453125,-76.171875,-26.85546875,-16.11328125,-62.01171875
2.6484375,-54.6875,-28.80859375,-17.08984375,-51.26953125
2.65234375,-63.96484375,-29.296875,-27.34375,-58.10546875
2.65625,-86.9140625,-24.90234375,-24.4140625,-63.4765625
2.66015625,-84.9609375,-21.97265625,-9.765625,-57.12890625
2.6640625,-73.2421875,-23.92578125,-12.20703125,-56.640625
2.66796875,-60.546875,-16.6015625,-11.71875,-58.59375
2.671875,-66.40625,-12.6953125,-14.6484375,-67.87109375
2.67578125,-75.1953125,-19.04296875,-18.5546875,-70.80078125
2.6796875,-70.3125,-24.4140625,-9.27734375,-58.59375
2.68359375,-62.5,-23.4375,-7.8125,-57.12890625
2.6875,-61.5234375,-27.83203125,-15.13671875,-73.2421875
2.69140625,-75.1953125,-31.73828125,-19.04296875,-71.77734375
2.6953125,-71.77734375,-25.390625,-16.11328125,-62.98828125
2.69921875,-60.546875,-15.625,-17.578125,-68.84765625
2.703125,-65.91796875,-15.625,-20.01953125,-74.70703125
2.70703125,-65.4296875,-25.390625,-24.4140625,-72.75390625
2.7109375,-55.6640625,-23.4375,-39.55078125,-53.7109375
2.71484375,-42.96875,-24.4140625,-38.0859375,-39.55078125
2.71875,-45.8984375,-30.2734375,-19.04296875,-59.08203125
2.72265625,-61.5234375,-29.78515625,-17.08984375,-83.49609375
2.7265625,-59.5703125,-24.90234375,-17.578125,-74.70703125
2.73046875,-67.3828125,-30.76171875,-20.99609375,-58.59375
2.734375,-67.87109375,-30.2734375,-23.4375,-44.921875
2.73828125,-64.94140625,-19.04296875,-25.87890625,-54.19921875
2.7421875,-80.56640625,-22.94921875,-29.296875,-75.1953125
2.74609375,-86.9140625,-33.203125,-24.90234375,-78.125
2.75,-66.89453125,-28.80859375,-26.85546875,-77.1484375
2.75390625,-52.24609375,-27.83203125,-26.85546875,-75.1953125
2.7578125,-68.84765625,-33.69140625,-25.390625,-75.68359375
2.76171875,-76.171875,-34.66796875,-28.3203125,-76.171875
2.765625,-63.96484375,-30.76171875,-28.3203125,-62.01171875
2.76953125,-58.59375,-27.34375,-24.4140625,-50.29296875
2.7734375,-65.4296875,-28.80859375,-20.5078125,-65.91796875
2.77734375,-76.66015625,-26.85546875,-21.484375,-75.1953125
2.78125,-68.84765625,-19.53125,-25.87890625,-58.59375
2.78515625,-59.5703125,-20.5078125,-22.94921875,-44.921875
2.7890625,-61.03515625,-28.3203125,-19.53125,-42.48046875
2.79296875,-65.4296875,-23.4375,-28.80859375,-51.26953125
2.796875,-60.05859375,-25.87890625,-28.3203125,-53.7109375
2.80078125,-46.875,-33.69140625,-23.4375,-53.22265625
2.8046875,-45.41015625,-31.73828125,-27.34375,-61.5234375
2.80859375,-58.10546875,-26.3671875,-18.06640625,-67.87109375
2.8125,-51.26953125,-19.04296875,-10.7421875,-68.359375
2.81640625,-44.43359375,-19.04296875,-14.6484375,-75.68359375
2.8203125,-57.6171875,-24.90234375,-9.27734375,-71.2890625
2.82421875,-67.87109375,-30.76171875,-7.32421875,-62.01171875
2.828125,-69.3359375,-25.390625,-19.53125,-54.6875
2.83203125,-60.05859375,-16.6015625,-31.73828125,-50.29296875
2.8359375,-52.734375,-14.6484375,-26.3671875,-52.734375
2.83984375,-67.3828125,-16.6015625,-17.08984375,-57.12890625
2.84375,-55.6640625,-17.08984375,-10.25390625,-55.6640625
2.84765625,-41.50390625,-20.99609375,-6.34765625,-47.36328125
2.8515625,-70.80078125,-29.78515625,-10.7421875,-52.24609375
2.85546875,-79.58984375,-28.3203125,-12.20703125,-57.6171875
2.859375,-71.2890625,-27.83203125,-8.7890625,-49.8046875
2.86328125,-63.96484375,-30.76171875,-10.25390625,-40.52734375
2.8671875,-37.59765625,-24.90234375,-6.8359375,-41.015625
2.87109375,-29.296875,-19.04296875,-4.8828125,-44.921875
2.875,-52.734375,-20.01953125,-11.71875,-44.921875
2.87890625,-71.2890625,-23.92578125,-15.625,-46.875
2.8828125,-65.4296875,-26.3671875,-27.83203125,-50.78125
2.88671875,-61.5234375,-24.90234375,-33.69140625,-54.6875
2.890625,-65.91796875,-21.97265625,-21.97265625,-48.33984375
2.89453125,-60.546875,-27.83203125,-12.20703125,-45.8984375
2.8984375,-49.31640625,-32.2265625,-11.23046875,-54.6875
2.90234375,-56.15234375,-23.92578125,-12.6953125,-65.91796875
2.90625,-71.77734375,-21.484375,-12.6953125,-75.68359375
2.91015625,-75.1953125,-24.4140625,-9.765625,-75.1953125
2.9140625,-69.3359375,-19.53125,-19.53125,-64.94140625
2.91796875,-57.6171875,-14.16015625,-24.4140625,-54.6875
2.921875,-54.6875,-20.5078125,-17.08984375,-62.5
2.92578125,-51.7578125,-25.390625,-12.20703125,-62.01171875
2.9296875,-63.96484375,-24.4140625,-15.13671875,-62.5
2.93359375,-75.1953125,-27.83203125,-22.4609375,-71.77734375
2.9375,-68.84765625,-25.390625,-26.85546875,-85.44921875
2.94140625,-70.80078125,-24.90234375,-28.80859375,-86.42578125
2.9453125,-72.75390625,-28.3203125,-32.2265625,-70.3125
2.94921875,-61.5234375,-19.53125,-26.85546875,-59.08203125
2.953125,-61.03515625,-18.5546875,-17.578125,-50.78125
2.95703125,-63.96484375,-31.25,-15.625,-38.0859375
2.9609375,-54.19921875,-31.25,-12.6953125,-37.109375
2.96484375,-44.921875,-27.34375,-14.6484375,-45.41015625
2.96875,-44.43359375,-36.62109375,-15.13671875,-48.828125
2.97265625,-40.52734375,-34.1796875,-15.625,-50.78125
2.9765625,-32.2265625,-19.04296875,-17.08984375,-44.43359375
2.98046875,-41.9921875,-18.06640625,-22.4609375,-41.015625
2.984375,-46.38671875,-18.5546875,-14.6484375,-41.50390625
2.98828125,-45.8984375,-14.16015625,-12.20703125,-43.45703125
2.9921875,-54.6875,-17.578125,-25.87890625,-39.55078125
2.99609375,-43.45703125,-19.53125,-22.94921875,-26.85546875
3.0,-17.578125,-21.484375,-17.08984375,-23.92578125
3.00390625,-24.4140625,-25.87890625,-19.04296875,-33.69140625
3.0078125,-45.8984375,-24.4140625,-16.6015625,-40.52734375
3.01171875,-52.24609375,-27.34375,-22.94921875,-34.1796875
3.015625,-31.25,-31.73828125,-29.296875,-27.34375
3.01953125,-24.4140625,-35.64453125,-21.484375,-30.2734375
3.0234375,-49.31640625,-34.1796875,-14.6484375,-28.3203125
3.02734375,-55.6640625,-23.4375,-14.6484375,-30.2734375
3.03125,-45.8984375,-17.08984375,-20.5078125,-30.76171875
3.03515625,-37.59765625,-13.18359375,-28.3203125,-30.76171875
3.0390625,-41.50390625,-15.13671875,-27.34375,-47.36328125
3.04296875,-49.8046875,-24.90234375,-15.13671875,-41.015625
3.046875,-41.9921875,-29.78515625,-12.20703125,-20.5078125
3.05078125,-47.8515625,-28.80859375,-23.4375,-36.62109375
3.0546875,-85.9375,-27.34375,-28.3203125,-77.1484375
3.05859375,-117.1875,-26.85546875,-34.66796875,-98.6328125
3.0625,-125.0,-25.390625,-40.0390625,-101.5625
3.06640625,-127.9296875,-24.4140625,-37.109375,-126.953125
3.0703125,-144.53125,-24.90234375,-37.109375,-162.109375
3.07421875,-171.875,-26.85546875,-34.66796875,-174.8046875
3.078125,-193.359375,-29.296875,-37.109375,-186.5234375
3.08203125,-190.91796875,-28.3203125,-30.2734375,-190.91796875
3.0859375,-189.94140625,-27.83203125,-25.87890625,-202.63671875
3.08984375,-208.0078125,-30.76171875,-40.0390625,-221.19140625
3.09375,-218.75,-33.69140625,-49.31640625,-228.02734375
3.09765625,-224.12109375,-33.203125,-49.8046875,-234.86328125
3.1015625,-232.421875,-32.2265625,-51.26953125,-235.83984375
3.10546875,-232.91015625,-23.92578125,-55.6640625,-238.28125
3.109375,-237.3046875,-20.5078125,-54.19921875,-252.44140625
3.11328125,-237.3046875,-27.83203125,-47.8515625,-275.87890625
3.1171875,-224.609375,-30.76171875,-41.015625,-281.73828125
3.12109375,-227.5390625,-33.203125,-39.0625,-286.62109375
3.125,-233.88671875,-36.1328125,-37.109375,-286.62109375
3.12890625,-212.40234375,-30.2734375,-37.109375,-259.765625
3.1328125,-199.21875,-23.92578125,-24.4140625,-245.1171875
3.13671875,-202.63671875,-22.4609375,-10.25390625,-243.65234375
3.140625,-197.265625,-25.390625,-20.5078125,-236.81640625
3.14453125,-187.5,-30.2734375,-40.0390625,-217.28515625
3.1484375,-158.203125,-20.99609375,-47.8515625,-191.40625
3.15234375,-141.6015625,-11.71875,-45.41015625,-191.40625
3.15625,-155.76171875,-16.11328125,-37.59765625,-191.40625
3.16015625,-141.6015625,-22.4609375,-29.296875,-148.4375
3.1640625,-110.3515625,-23.4375,-22.94921875,-129.39453125
3.16796875,-104.4921875,-27.83203125,-31.73828125,-145.5078125
3.171875,-111.81640625,-33.203125,-57.12890625,-138.18359375
3.17578125,-102.5390625,-23.92578125,-49.8046875,-105.46875
3.1796875,-85.44921875,-15.13671875,-23.4375,-80.56640625
3.18359375,-67.87109375,-17.578125,-15.625,-75.1953125
3.1875,-55.6640625,-23.4375,-15.13671875,-74.70703125
3.19140625,-55.17578125,-24.4140625,-20.99609375,-70.80078125
3.1953125,-53.7109375,-23.92578125,-23.4375,-53.22265625
3.19921875,-38.0859375,-22.94921875,-29.78515625,-46.38671875
3.203125,-32.71484375,-20.99609375,-37.109375,-47.8515625
3.20703125,-36.1328125,-21.484375,-33.69140625,-41.50390625
3.2109375,-23.92578125,-22.94921875,-37.109375,-33.69140625
3.21484375,-9.765625,-23.4375,-40.0390625,-23.92578125
3.21875,-23.92578125,-20.01953125,-33.203125,-29.78515625
3.22265625,-39.55078125,-20.01953125,-31.25,-36.1328125
3.2265625,-46.875,-19.53125,-35.64453125,-35.15625
3.23046875,-42.96875,-17.08984375,-29.296875,-10.25390625
3.234375,-32.2265625,-20.01953125,-33.203125,-11.71875
3.23828125,-34.66796875,-20.99609375,-31.25,-37.59765625
3.2421875,-48.828125,-21.484375,-27.83203125,-28.80859375
3.24609375,-41.015625,-22.4609375,-29.78515625,-19.53125
3.25,-23.92578125,-19.53125,-12.6953125,-17.08984375
3.25390625,-32.71484375,-16.6015625,-8.30078125,-20.01953125
3.2578125,-36.62109375,-13.18359375,-13.18359375,-20.01953125
3.26171875,-30.2734375,-13.18359375,-18.06640625,-13.18359375
3.265625,-6.8359375,-22.94921875,-14.6484375,-4.8828125
3.26953125,13.18359375,-25.87890625,-13.671875,-7.8125
3.2734375,-16.6015625,-27.83203125,-23.92578125,-22.4609375
3.27734375,-55.6640625,-29.296875,-25.87890625,-11.71875
3.28125,-66.40625,-24.4140625,-39.55078125,-8.7890625
3.28515625,-49.8046875,-19.04296875,-52.24609375,-21.484375
3.2890625,-43.45703125,-23.92578125,-40.52734375,-27.83203125
3.29296875,-45.8984375,-24.4140625,-25.87890625,-23.92578125
3.296875,-32.71484375,-17.578125,-22.94921875,-15.13671875
3.30078125,-21.484375,-20.99609375,-25.87890625,-11.71875
3.3046875,-23.92578125,-25.390625,-19.04296875,-5.859375
3.30859375,-22.94921875,-38.57421875,-16.11328125,-4.39453125
3.3125,-29.78515625,-36.62109375,-32.71484375,-12.20703125
3.31640625,-34.1796875,-21.484375,-40.52734375,-28.3203125
3.3203125,-38.0859375,-24.4140625,-36.1328125,-42.96875
3.32421875,-49.31640625,-23.4375,-40.52734375,-37.59765625
3.328125,-42.48046875,-21.97265625,-38.0859375,-34.1796875
3.33203125,-35.64453125,-21.484375,-20.01953125,-30.2734375
3.3359375,-47.8515625,-29.296875,-12.20703125,-29.78515625
3.33984375,-60.05859375,-27.83203125,-19.04296875,-39.0625
3.34375,-66.89453125,-16.11328125,-21.97265625,-39.55078125
3.34765625,-53.22265625,-19.04296875,-20.99609375,-29.296875
3.3515625,-44.43359375,-23.92578125,-20.01953125,-23.4375
3.35546875,-61.5234375,-29.78515625,-27.34375,-26.3671875
3.359375,-67.3828125,-32.71484375,-33.203125,-22.94921875
3.36328125,-57.12890625,-35.15625,-29.296875,1.953125
3.3671875,-49.31640625,-31.25,-24.4140625,35.15625
3.37109375,-50.78125,-27.34375,-23.92578125,38.0859375
3.375,-70.3125,-22.4609375,-30.2734375,30.2734375
3.37890625,-63.4765625,-21.97265625,-24.90234375,30.76171875
3.3828125,-43.45703125,-22.94921875,-20.99609375,33.69140625
3.38671875,-47.36328125,-26.85546875,-23.92578125,12.20703125
3.390625,-54.6875,-32.71484375,-22.94921875,-9.27734375
3.39453125,-50.78125,-30.2734375,-21.97265625,0.0
3.3984375,-39.55078125,-28.3203125,-24.90234375,-2.9296875
3.40234375,-41.015625,-28.3203125,-24.4140625,-17.578125
3.40625,-38.0859375,-20.01953125,-24.4140625,-19.53125
3.41015625,-47.8515625,-20.99609375,-29.296875,-17.578125
3.4140625,-51.7578125,-20.5078125,-29.296875,-11.71875
3.41796875,-40.52734375,-18.06640625,-27.34375,-12.20703125
3.421875,-53.7109375,-21.97265625,-26.3671875,-25.390625
3.42578125,-62.98828125,-24.90234375,-15.625,-29.296875
3.4296875,-44.43359375,-26.3671875,-6.34765625,-23.4375
3.43359375,-30.2734375,-31.25,-22.94921875,-31.25
3.4375,-47.36328125,-36.62109375,-36.62109375,-53.22265625
3.44140625,-76.171875,-33.203125,-30.2734375,-54.19921875
3.4453125,-75.68359375,-23.92578125,-28.80859375,-26.3671875
3.44921875,-55.6640625,-22.94921875,-30.2734375,-20.5078125
3.453125,-45.41015625,-21.97265625,-25.87890625,-43.9453125
3.45703125,-48.33984375,-21.97265625,-35.15625,-50.78125
3.4609375,-39.55078125,-24.90234375,-32.2265625,-39.0625
3.46484375,-31.73828125,-24.4140625,-20.99609375,-37.109375
3.46875,-45.8984375,-23.4375,-31.25,-51.7578125
3.47265625,-55.17578125,-22.4609375,-27.34375,-50.29296875
3.4765625,-57.12890625,-24.90234375,-13.671875,-30.76171875
3.48046875,-46.38671875,-26.85546875,-17.578125,-21.97265625
3.484375,-35.64453125,-23.4375,-21.97265625,-42.96875
3.48828125,-51.7578125,-21.484375,-27.34375,-69.3359375
3.4921875,-65.4296875,-20.99609375,-31.25,-65.4296875
3.49609375,-55.6640625,-19.04296875,-31.73828125,-54.6875
3.5,-33.203125,-23.4375,-35.15625,-46.38671875
3.50390625,-26.3671875,-20.5078125,-37.59765625,-48.33984375
3.5078125,-44.43359375,-23.92578125,-47.36328125,-43.45703125
3.51171875,-53.22265625,-27.34375,-54.6875,-34.66796875
3.515625,-50.78125,-20.01953125,-35.64453125,-43.45703125
3.51953125,-53.22265625,-16.6015625,-25.390625,-48.828125
3.5234375,-54.6875,-20.5078125,-23.92578125,-45.41015625
3.52734375,-41.9921875,-28.3203125,-19.53125,-40.0390625
3.53125,-37.59765625,-20.99609375,-24.90234375,-36.1328125
3.53515625,-48.828125,-14.16015625,-41.50390625,-39.0625
3.5390625,-58.10546875,-17.578125,-34.66796875,-43.45703125
3.54296875,-62.98828125,-25.390625,-6.34765625,-35.64453125
3.546875,-61.5234375,-35.64453125,-0.48828125,-26.85546875
3.55078125,-49.8046875,-30.2734375,-16.6015625,-37.59765625
3.5546875,-61.03515625,-26.85546875,-28.3203125,-52.24609375
3.55859375,-77.63671875,-25.87890625,-26.3671875,-58.59375
3.5625,-66.89453125,-25.87890625,-26.85546875,-52.24609375
3.56640625,-54.6875,-33.203125,-22.94921875,-41.9921875
3.5703125,-53.7109375,-28.3203125,-18.06640625,-45.41015625
3.57421875,-67.87109375,-19.53125,-27.83203125,-54.6875
3.578125,-82.03125,-20.5078125,-34.1796875,-54.19921875
3.58203125,-67.87109375,-22.4609375,-22.94921875,-45.41015625
3.5859375,-55.17578125,-23.4375,-6.8359375,-52.24609375
3.58984375,-67.87109375,-19.53125,-6.34765625,-75.1953125
3.59375,-71.2890625,-15.13671875,-19.04296875,-92.7734375
3.59765625,-65.4296875,-23.92578125,-23.4375,-107.421875
3.6015625,-58.59375,-36.62109375,-20.5078125,-170.41015625
3.60546875,-63.96484375,-39.55078125,-18.06640625,-336.9140625
3.609375,-81.54296875,-32.2265625,-17.08984375,-535.64453125
3.61328125,-81.54296875,-23.92578125,-12.6953125,-608.88671875
3.6171875,-65.4296875,-23.4375,-20.01953125,-608.3984375
3.62109375,-69.3359375,-25.390625,-26.3671875,-615.234375
3.625,-79.1015625,-29.296875,-24.90234375,-598.14453125
3.62890625,-75.68359375,-39.0625,-25.390625,-562.5
3.6328125,-67.87109375,-37.59765625,-20.5078125,-535.64453125
3.63671875,-66.89453125,-29.296875,-19.04296875,-524.90234375
3.640625,-74.21875,-27.34375,-20.01953125,-513.18359375
3.64453125,-67.3828125,-30.76171875,-15.13671875,-490.234375
3.6484375,-56.15234375,-29.78515625,-19.04296875,-469.7265625
3.65234375,-52.734375,-23.4375,-24.90234375,-457.03125
3.65625,-57.12890625,-25.390625,-26.3671875,-439.94140625
3.66015625,-65.91796875,-34.66796875,-28.80859375,-425.29296875
3.6640625,-55.17578125,-33.203125,-25.87890625,-402.34375
3.66796875,-42.48046875,-25.87890625,-26.85546875,-373.046875
3.671875,-55.17578125,-25.390625,-29.78515625,-361.81640625
3.67578125,-54.19921875,-20.99609375,-28.3203125,-352.5390625
3.6796875,-48.33984375,-23.4375,-30.76171875,-340.33203125
3.68359375,-51.7578125,-27.83203125,-30.2734375,-332.51953125
3.6875,-61.03515625,-25.390625,-26.85546875,-326.66015625
3.69140625,-73.2421875,-26.85546875,-26.85546875,-312.01171875
3.6953125,-70.80078125,-24.90234375,-27.83203125,-287.109375
3.69921875,-56.15234375,-23.4375,-24.90234375,-266.6015625
3.703125,-50.29296875,-26.85546875,-25.87890625,-262.6953125
3.70703125,-59.5703125,-25.87890625,-26.85546875,-260.7421875
3.7109375,-62.98828125,-25.390625,-23.92578125,-243.1640625
3.71484375,-53.7109375,-24.4140625,-20.99609375,-229.00390625
3.71875,-48.828125,-17.08984375,-20.99609375,-229.00390625
3.72265625,-58.59375,-18.06640625,-24.4140625,-224.12109375
3.7265625,-63.4765625,-27.34375,-25.87890625,-209.47265625
3.73046875,-61.03515625,-23.4375,-20.99609375,-200.1953125
3.734375,-50.78125,-20.01953125,-20.5078125,-209.9609375
3.73828125,-45.41015625,-22.94921875,-22.4609375,-227.5390625
3.7421875,-62.01171875,-23.4375,-14.6484375,-220.21484375
3.74609375,-60.546875,-20.5078125,-16.11328125,-194.82421875
3.75,-29.78515625,-22.4609375,-28.3203125,-171.875
3.75390625,-25.87890625,-23.92578125,-17.08984375,-160.15625
3.7578125,-71.2890625,-24.4140625,0.0,-177.734375
3.76171875,-91.796875,-26.3671875,-2.44140625,-189.453125
3.765625,-75.68359375,-27.34375,-6.8359375,-154.78515625
3.76953125,-71.77734375,-31.25,-6.8359375,-134.27734375
3.7734375,-82.03125,-35.64453125,-6.8359375,-131.34765625
3.77734375,-88.37890625,-41.015625,-3.41796875,-114.2578125
3.78125,-86.42578125,-42.48046875,1.46484375,-113.76953125
3.78515625,-73.2421875,-41.015625,0.0,-100.5859375
3.7890625,-68.84765625,-35.15625,0.0,-91.30859375
3.79296875,-62.98828125,-38.0859375,0.0,-108.88671875
3.796875,-61.5234375,-46.875,-12.20703125,-108.88671875
3.80078125,-74.70703125,-49.8046875,-21.97265625,-100.5859375
3.8046875,-90.8203125,-46.38671875,-20.01953125,-106.93359375
3.80859375,-94.7265625,-39.55078125,-8.7890625,-113.28125
3.8125,-76.66015625,-35.15625,-13.671875,-117.67578125
3.81640625,-60.546875,-39.0625,-19.04296875,-122.55859375
3.8203125,-64.94140625,-39.0625,-1.46484375,-124.0234375
3.82421875,-73.73046875,-31.25,4.39453125,-123.53515625
3.828125,-69.82421875,-32.71484375,-1.46484375,-129.8828125
3.83203125,-57.12890625,-40.0390625,-0.48828125,-130.37109375
3.8359375,-62.5,-44.921875,-2.9296875,-127.9296875
3.83984375,-85.44921875,-39.0625,-16.11328125,-140.13671875
3.84375,-74.70703125,-36.1328125,-23.4375,-126.46484375
3.84765625,-46.38671875,-34.66796875,-20.5078125,-117.1875
3.8515625,-29.78515625,-37.109375,-18.06640625,-126.953125
3.85546875,-26.3671875,-36.62109375,-20.5078125,-122.0703125
3.859375,-48.33984375,-34.66796875,-16.6015625,-137.6953125
3.86328125,-53.22265625,-39.0625,-12.6953125,-136.71875
3.8671875,-36.62109375,-40.0390625,-15.13671875,-124.0234375
3.87109375,-29.78515625,-35.64453125,-14.16015625,-125.48828125
3.875,-27.83203125,-32.2265625,-12.20703125,-120.60546875
3.87890625,-35.64453125,-34.66796875,-9.27734375,-110.3515625
3.8828125,-42.96875,-36.1328125,-14.16015625,-108.88671875
3.88671875,-40.52734375,-29.296875,-20.5078125,-119.140625
3.890625,-42.48046875,-28.80859375,-14.6484375,-116.2109375
3.89453125,-43.45703125,-34.1796875,-9.765625,-93.26171875
3.8984375,-40.0390625,-31.73828125,-16.6015625,-80.56640625
3.90234375,-42.48046875,-29.296875,-19.53125,-88.37890625
3.90625,-43.9453125,-32.2265625,-19.04296875,-91.30859375
3.91015625,-32.2265625,-30.76171875,-21.97265625,-72.75390625
3.9140625,-29.296875,-30.76171875,-19.53125,-63.96484375
3.91796875,-39.0625,-24.4140625,-23.4375,-62.5
3.921875,-53.22265625,-20.5078125,-22.4609375,-61.03515625
3.92578125,-54.6875,-16.6015625,-13.18359375,-59.08203125
3.9296875,-40.0390625,-14.6484375,-11.23046875,-53.22265625
3.93359375,-40.52734375,-22.4609375,-17.578125,-51.26953125
3.9375,-48.828125,-28.3203125,-17.578125,-60.05859375
3.94140625,-53.7109375,-30.2734375,-14.6484375,-68.359375
3.9453125,-41.9921875,-29.78515625,-12.6953125,-61.5234375
3.94921875,-39.0625,-32.71484375,-13.18359375,-50.29296875
3.953125,-34.1796875,-26.3671875,-15.625,-52.734375
3.95703125,-36.62109375,-29.78515625,-9.27734375,-55.6640625
3.9609375,-54.19921875,-32.2265625,-10.7421875,-41.50390625
3.96484375,-50.29296875,-18.5546875,-22.4609375,-35.64453125
3.96875,-37.109375,-13.18359375,-30.2734375,-34.66796875
3.97265625,-35.64453125,-5.859375,-39.55078125,-33.69140625
3.9765625,-32.71484375,-5.859375,-31.25,-31.73828125
3.98046875,-37.59765625,-20.5078125,-19.53125,-36.1328125
3.984375,-46.38671875,-26.3671875,-21.484375,-45.41015625
3.98828125,-44.921875,-14.16015625,-22.4609375,-42.48046875
3.9921875,-55.6640625,-9.765625,-22.94921875,-35.15625
3.99609375,-66.89453125,-24.90234375,-14.6484375,-35.64453125
4.0,-51.7578125,-30.76171875,-6.8359375,-32.2265625
4.00390625,-33.203125,-18.5546875,-9.765625,-35.64453125
4.0078125,-48.33984375,-14.16015625,-12.20703125,-45.8984375
4.01171875,-58.59375,-29.78515625,-9.765625,-44.43359375
4.015625,-56.640625,-28.3203125,-12.20703125,-41.9921875
4.01953125,-62.98828125,-9.765625,-17.578125,-52.24609375
4.0234375,-71.2890625,-3.41796875,-18.5546875,-58.10546875
4.02734375,-68.359375,-7.8125,-14.6484375,-50.29296875
4.03125,-57.12890625,-18.5546875,-14.6484375,-49.31640625
4.03515625,-79.58984375,-17.08984375,-20.99609375,-54.19921875
4.0390625,-95.703125,-15.625,-22.4609375,-61.03515625
4.04296875,-83.984375,-14.6484375,-14.16015625,-44.921875
4.046875,-65.4296875,-15.13671875,-9.765625,-24.4140625
4.05078125,-56.640625,-19.53125,-18.06640625,-38.57421875
4.0546875,-61.03515625,-21.97265625,-24.4140625,-46.875
4.05859375,-64.94140625,-20.01953125,-22.94921875,-38.57421875
4.0625,-65.91796875,-18.5546875,-17.578125,-28.80859375
4.06640625,-62.5,-23.92578125,-13.18359375,-27.34375
4.0703125,-64.94140625,-25.390625,-11.23046875,-34.66796875
4.07421875,-66.40625,-15.625,-6.8359375,-32.2265625
4.078125,-62.5,-14.16015625,-7.32421875,-20.99609375
4.08203125,-52.24609375,-15.625,-17.578125,-33.203125
4.0859375,-57.12890625,-20.01953125,-20.5078125,-47.8515625
4.08984375,-78.125,-25.390625,-21.484375,-43.9453125
4.09375,-76.171875,-16.6015625,-35.64453125,-48.33984375
4.09765625,-58.59375,-14.6484375,-30.76171875,-43.45703125
4.1015625,-55.6640625,-16.6015625,-19.53125,-45.41015625
4.10546875,-66.89453125,-10.7421875,-28.80859375,-60.546875
4.109375,-42.48046875,-7.8125,-34.66796875,-33.69140625
4.11328125,-16.11328125,-13.671875,-22.94921875,-12.20703125
4.1171875,-46.38671875,-20.99609375,-16.11328125,-41.015625
4.12109375,-87.40234375,-25.87890625,-17.578125,-66.89453125
4.125,-124.0234375,-27.83203125,-18.06640625,-56.640625
4.12890625,-147.94921875,-28.3203125,-13.18359375,-52.24609375
4.1328125,-136.23046875,-30.2734375,-5.37109375,-57.6171875
4.13671875,-137.20703125,-30.76171875,-0.9765625,-56.15234375
4.140625,-155.76171875,-38.0859375,2.44140625,-57.12890625
4.14453125,-154.296875,-44.43359375,-4.8828125,-56.640625
4.1484375,-118.1640625,-41.015625,-13.18359375,-40.0390625
4.15234375,-112.79296875,-38.0859375,0.48828125,-57.6171875
4.15625,-154.78515625,-40.52734375,13.18359375,-91.30859375
4.16015625,-164.55078125,-44.921875,10.25390625,-81.0546875
4.1640625,-145.5078125,-41.50390625,11.71875,-70.3125
4.16796875,-121.58203125,-35.15625,8.30078125,-62.5
4.171875,-99.12109375,-37.109375,5.37109375,-49.31640625
4.17578125,-93.26171875,-41.015625,13.18359375,-40.0390625
4.1796875,-91.30859375,-35.64453125,18.06640625,-36.1328125
4.18359375,-83.984375,-29.78515625,5.37109375,-37.109375
4.1875,-70.80078125,-28.3203125,-8.7890625,-35.64453125
4.19140625,-56.640625,-33.203125,2.9296875,-22.4609375
4.1953125,-57.12890625,-31.25,14.6484375,-7.32421875
4.19921875,-50.78125,-29.78515625,6.34765625,-4.8828125
4.203125,-61.03515625,-33.203125,3.41796875,-17.578125
4.20703125,-78.61328125,-32.71484375,4.8828125,-31.73828125
4.2109375,-66.40625,-32.71484375,-2.9296875,-24.4140625
4.21484375,-51.7578125,-32.71484375,-1.953125,0.48828125
4.21875,-53.7109375,-28.80859375,0.0,1.46484375
4.22265625,-59.08203125,-38.0859375,0.9765625,-19.04296875
4.2265625,-67.3828125,-42.48046875,-0.48828125,-29.296875
4.23046875,-69.3359375,-28.80859375,-7.32421875,-41.9921875
4.234375,-62.01171875,-21.97265625,-9.27734375,-48.828125
4.23828125,-85.44921875,-15.625,-9.27734375,-52.24609375
4.2421875,-91.796875,-22.4609375,-4.8828125,-40.52734375
4.24609375,-71.2890625,-32.2265625,-3.41796875,-32.2265625
4.25,-58.10546875,-27.83203125,-4.39453125,-35.15625
4.25390625,-52.734375,-27.34375,-13.18359375,-36.1328125
4.2578125,-52.734375,-28.80859375,-21.97265625,-30.76171875
4.26171875,-47.8515625,-23.92578125,-22.4609375,-14.6484375
4.265625,-43.45703125,-25.390625,-9.765625,-5.859375
4.26953125,-42.96875,-30.2734375,-0.9765625,-18.06640625
4.2734375,-53.7109375,-35.15625,-8.30078125,-36.1328125
4.27734375,-65.91796875,-33.69140625,-9.27734375,-38.57421875
4.28125,-61.03515625,-24.4140625,-5.859375,-45.8984375
4.28515625,-48.828125,-25.87890625,-7.8125,-62.5
4.2890625,-47.8515625,-25.87890625,-10.7421875,-65.4296875
4.29296875,-61.5234375,-27.83203125,-17.578125,-61.5234375
4.296875,-56.15234375,-27.34375,-19.53125,-46.38671875
4.30078125,-40.0390625,-17.08984375,-20.5078125,-39.55078125
4.3046875,-38.0859375,-14.6484375,-19.04296875,-52.24609375
4.30859375,-43.45703125,-12.6953125,-15.13671875,-51.7578125
4.3125,-49.31640625,-14.16015625,-20.5078125,-28.80859375
4.31640625,-48.828125,-23.4375,-30.2734375,-17.08984375
4.3203125,-51.26953125,-32.71484375,-28.80859375,-26.3671875
4.32421875,-45.41015625,-36.1328125,-9.27734375,-30.2734375
4.328125,-49.31640625,-31.25,-17.08984375,-20.99609375
4.33203125,-51.7578125,-24.4140625,-20.99609375,-16.11328125
4.3359375,-45.8984375,-19.53125,-4.8828125,-21.97265625
4.33984375,-48.33984375,-15.625,-3.90625,-38.0859375
4.34375,-50.29296875,-20.01953125,-3.90625,-51.26953125
4.34765625,-46.38671875,-20.99609375,-11.23046875,-54.19921875
4.3515625,-41.9921875,-18.06640625,-20.01953125,-55.17578125
4.35546875,-53.22265625,-19.53125,-22.94921875,-58.59375
4.359375,-62.5,-26.3671875,-20.5078125,-46.875
4.36328125,-62.5,-28.3203125,-21.97265625,-27.34375
4.3671875,-53.22265625,-29.296875,-24.4140625,-19.53125
4.37109375,-57.6171875,-32.2265625,-18.5546875,-16.6015625
4.375,-59.5703125,-28.3203125,-16.11328125,-18.06640625
4.37890625,-36.62109375,-26.85546875,-29.78515625,-15.13671875
4.3828125,-30.2734375,-24.90234375,-33.203125,-3.90625
4.38671875,-41.50390625,-20.5078125,-31.25,-3.41796875
4.390625,-69.3359375,-25.87890625,-35.64453125,-18.06640625
4.39453125,-77.1484375,-37.109375,-22.94921875,-1.46484375
4.3984375,-57.6171875,-41.9921875,-16.6015625,79.1015625
4.40234375,-62.98828125,-34.66796875,-14.6484375,141.6015625
4.40625,-78.125,-31.73828125,-12.20703125,136.23046875
4.41015625,-74.21875,-29.78515625,-17.08984375,126.953125
4.4140625,-63.96484375,-30.2734375,-38.57421875,117.67578125
4.41796875,-56.640625,-30.2734375,-36.62109375,102.05078125
4.421875,-62.5,-25.390625,-15.625,83.984375
4.42578125,-74.70703125,-19.04296875,-10.7421875,73.2421875
4.4296875,-63.96484375,-16.11328125,-13.671875,71.77734375
4.43359375,-48.828125,-18.5546875,-16.11328125,64.453125
4.4375,-52.24609375,-17.578125,-20.01953125,56.15234375
4.44140625,-57.12890625,-20.01953125,-33.69140625,49.8046875
4.4453125,-44.921875,-23.4375,-34.66796875,50.29296875
4.44921875,-42.48046875,-22.94921875,-17.578125,37.109375
4.453125,-74.21875,-23.4375,-10.7421875,10.25390625
4.45703125,-94.23828125,-23.92578125,-13.18359375,24.4140625
4.4609375,-81.54296875,-26.85546875,-15.13671875,29.78515625
4.46484375,-83.49609375,-29.78515625,-18.5546875,-4.8828125
4.46875,-89.35546875,-25.87890625,-15.13671875,-19.53125
4.47265625,-93.75,-23.4375,-12.20703125,-21.484375
4.4765625,-77.63671875,-27.34375,-15.13671875,-0.48828125
4.48046875,-43.9453125,-28.3203125,-20.5078125,39.0625
4.484375,-47.36328125,-24.4140625,-32.2265625,36.1328125
4.48828125,-82.03125,-22.94921875,-38.57421875,-26.3671875
4.4921875,-97.16796875,-22.94921875,-39.0625,-37.109375
4.49609375,-76.66015625,-21.484375,-30.76171875,-12.20703125
4.5,-55.17578125,-19.04296875,-19.04296875,-9.765625
4.50390625,-63.4765625,-24.4140625,-18.5546875,-23.92578125
4.5078125,-81.54296875,-24.4140625,-17.578125,-16.11328125
4.51171875,-67.87109375,-15.13671875,-17.08984375,3.41796875
4.515625,-39.0625,-17.578125,-15.13671875,10.7421875
4.51953125,-48.33984375,-20.99609375,-14.16015625,-11.71875
4.5234375,-84.47265625,-22.94921875,-14.6484375,-49.31640625
4.52734375,-95.21484375,-25.87890625,-18.5546875,-39.55078125
4.53125,-83.984375,-24.4140625,-21.484375,-36.1328125
4.53515625,-72.75390625,-25.390625,-20.99609375,88.8671875
4.5390625,-82.03125,-29.78515625,-20.01953125,212.40234375
4.54296875,-71.77734375,-37.109375,-16.11328125,225.09765625
4.546875,-44.43359375,-36.1328125,-13.671875,263.18359375
4.55078125,-49.8046875,-30.2734375,-20.5078125,204.1015625
4.5546875,-76.66015625,-27.34375,-23.4375,108.88671875
4.55859375,-84.47265625,-31.25,-24.90234375,146.97265625
4.5625,-65.91796875,-30.76171875,-20.5078125,204.58984375
4.56640625,-37.59765625,-30.76171875,-19.53125,172.36328125
4.5703125,-31.73828125,-31.25,-29.296875,142.578125
4.57421875,-50.29296875,-21.484375,-42.96875,122.0703125
4.578125,-44.921875,-25.390625,-33.203125,116.69921875
4.58203125,-38.57421875,-31.25,-11.23046875,112.79296875
4.5859375,-58.10546875,-27.34375,-8.7890625,92.28515625
4.58984375,-72.75390625,-28.80859375,-12.6953125,76.171875
4.59375,-58.10546875,-34.1796875,-14.6484375,89.84375
4.59765625,-38.57421875,-31.73828125,-14.16015625,143.5546875
4.6015625,-56.15234375,-28.80859375,-16.11328125,98.14453125
4.60546875,-72.75390625,-30.2734375,-19.04296875,69.3359375
4.609375,-61.03515625,-21.97265625,-19.04296875,313.4765625
4.61328125,-40.52734375,-20.01953125,-28.80859375,668.45703125
4.6171875,-30.2734375,-28.80859375,-32.2265625,833.49609375
4.62109375,-42.96875,-23.92578125,-24.4140625,834.9609375
4.625,-52.734375,-23.92578125,-34.66796875,822.265625
4.62890625,-40.0390625,-19.04296875,-25.390625,809.5703125
4.6328125,-35.15625,-14.16015625,-9.765625,771.484375
4.63671875,-36.1328125,-24.4140625,-4.8828125,714.84375
4.640625,-43.45703125,-24.90234375,-9.27734375,676.7578125
4.64453125,-49.31640625,-22.4609375,-13.18359375,667.96875
4.6484375,-42.96875,-21.484375,-21.484375,648.92578125
4.65234375,-39.55078125,-23.92578125,-27.83203125,620.60546875
4.65625,-48.828125,-26.3671875,-18.06640625,603.02734375
4.66015625,-45.41015625,-26.85546875,-10.25390625,594.7265625
4.6640625,-28.3203125,-25.87890625,-12.20703125,591.30859375
4.66796875,-38.0859375,-23.92578125,-20.01953125,598.6328125
4.671875,-42.48046875,-24.90234375,-21.484375,599.12109375
4.67578125,-29.296875,-23.92578125,-20.01953125,596.19140625
4.6796875,-33.69140625,-20.01953125,-16.6015625,570.3125
4.68359375,-56.15234375,-15.13671875,-17.08984375,488.28125
4.6875,-82.03125,-19.53125,-23.4375,425.29296875
4.69140625,-76.66015625,-24.90234375,-31.73828125,419.921875
4.6953125,-68.84765625,-29.296875,-35.15625,406.73828125
4.69921875,-73.2421875,-35.64453125,-29.78515625,394.04296875
4.703125,-75.68359375,-24.90234375,-26.3671875,392.578125
4.70703125,-97.16796875,-19.04296875,-31.25,374.0234375
4.7109375,-102.5390625,-22.4609375,-40.52734375,355.95703125
4.71484375,-85.9375,-16.11328125,-53.22265625,348.14453125
4.71875,-95.703125,-16.11328125,-58.10546875,335.9375
4.72265625,-116.69921875,-17.578125,-56.15234375,332.03125
4.7265625,-104.98046875,-19.53125,-55.6640625,349.609375
4.73046875,-78.61328125,-21.97265625,-38.0859375,351.07421875
4.734375,-73.2421875,-21.484375,-20.99609375,343.26171875
4.73828125,-77.63671875,-17.578125,-18.06640625,336.9140625
4.7421875,-77.1484375,-15.625,-19.04296875,329.1015625
4.74609375,-71.77734375,-21.484375,-32.2265625,327.1484375
4.75,-54.6875,-24.4140625,-31.73828125,317.3828125
4.75390625,-57.12890625,-22.94921875,-35.64453125,307.6171875
4.7578125,-61.03515625,-17.578125,-45.8984375,306.640625
4.76171875,-58.59375,-13.671875,-37.59765625,316.89453125
4.765625,-56.640625,-16.6015625,-36.62109375,315.91796875
4.76953125,-55.17578125,-22.94921875,-35.64453125,318.359375
4.7734375,-48.33984375,-21.97265625,-28.3203125,329.58984375
4.77734375,-45.41015625,-14.6484375,-28.80859375,336.42578125
4.78125,-50.78125,-17.578125,-30.76171875,351.5625
4.78515625,-39.0625,-15.13671875,-31.73828125,372.55859375
4.7890625,-44.921875,-16.11328125,-39.55078125,372.55859375
4.79296875,-45.41015625,-21.484375,-34.66796875,364.2578125
4.796875,-27.34375,-16.11328125,-28.3203125,362.79296875
4.80078125,-42.96875,-13.671875,-27.34375,337.40234375
4.8046875,-74.21875,-21.97265625,-22.94921875,322.75390625
4.80859375,-76.171875,-26.85546875,-29.296875,307.12890625
4.8125,-56.640625,-19.53125,-35.64453125,301.26953125
4.81640625,-43.9453125,-17.578125,-35.15625,303.7109375
4.8203125,-58.59375,-25.87890625,-26.85546875,282.2265625
4.82421875,-74.70703125,-30.2734375,-26.3671875,267.08984375
4.828125,-67.87109375,-18.06640625,-40.0390625,267.578125
4.83203125,-51.7578125,-14.6484375,-35.15625,253.41796875
4.8359375,-33.69140625,-20.5078125,-22.94921875,239.74609375
4.83984375,-47.8515625,-23.4375,-18.06640625,242.67578125
4.84375,-60.546875,-23.92578125,-22.94921875,235.83984375
4.84765625,-43.9453125,-23.4375,-29.78515625,231.93359375
4.8515625,-41.9921875,-29.296875,-22.94921875,232.91015625
4.85546875,-67.87109375,-33.69140625,-22.94921875,215.33203125
4.859375,-96.19140625,-34.1796875,-37.109375,191.40625
4.86328125,-92.28515625,-38.0859375,-36.62109375,187.5
4.8671875,-70.3125,-38.0859375,-25.390625,190.4296875
4.87109375,-63.96484375,-32.2265625,-20.01953125,186.03515625
4.875,-68.84765625,-30.76171875,-27.34375,166.9921875
4.87890625,-78.125,-34.1796875,-29.296875,166.015625
4.8828125,-81.0546875,-39.55078125,-24.4140625,153.3203125
4.88671875,-66.89453125,-36.62109375,-31.73828125,125.48828125
4.890625,-58.10546875,-30.2734375,-39.0625,126.46484375
4.89453125,-61.5234375,-31.73828125,-32.2265625,140.13671875
4.8984375,-64.453125,-39.55078125,-30.76171875,133.30078125
4.90234375,-79.58984375,-45.41015625,-30.76171875,122.55859375
4.90625,-90.33203125,-32.2265625,-27.83203125,119.140625
4.91015625,-86.9140625,-25.390625,-32.2265625,116.69921875
4.9140625,-73.73046875,-25.390625,-32.2265625,120.1171875
4.91796875,-57.12890625,-15.625,-35.64453125,110.83984375
4.921875,-62.01171875,-20.99609375,-33.203125,89.35546875
4.92578125,-70.3125,-27.34375,-33.203125,87.40234375
4.9296875,-67.3828125,-27.34375,-32.71484375,104.4921875
4.93359375,-67.3828125,-24.90234375,-35.15625,97.65625
4.9375,-73.73046875,-23.4375,-37.59765625,83.984375
4.94140625,-76.66015625,-26.85546875,-30.2734375,88.37890625
4.9453125,-68.84765625,-26.85546875,-24.90234375,89.35546875
4.94921875,-49.8046875,-25.87890625,-33.69140625,81.54296875
4.953125,-47.8515625,-32.71484375,-38.57421875,76.171875
4.95703125,-62.5,-35.64453125,-33.203125,72.75390625
4.9609375,-52.24609375,-34.1796875,-37.59765625,66.40625
4.96484375,-20.01953125,-29.78515625,-36.1328125,65.91796875
4.96875,-16.6015625,-23.92578125,-20.5078125,61.03515625
4.97265625,-48.33984375,-20.99609375,-13.671875,47.36328125
4.9765625,-68.84765625,-20.01953125,-24.90234375,38.0859375
4.98046875,-70.3125,-23.4375,-26.85546875,36.1328125
4.984375,-68.359375,-21.97265625,-21.484375,34.66796875
4.98828125,-66.40625,-17.08984375,-27.83203125,20.99609375
4.9921875,-64.453125,-16.6015625,-30.76171875,15.13671875
4.99609375,-66.40625,-20.99609375,-23.92578125,16.6015625
5.0,-61.03515625,-20.99609375,-28.3203125,4.8828125
5.00390625,-48.33984375,-24.4140625,-31.73828125,-1.953125
5.0078125,-62.01171875,-30.2734375,-29.78515625,-6.8359375
5.01171875,-62.01171875,-36.1328125,-31.25,-0.9765625
5.015625,-46.38671875,-43.45703125,-37.109375,11.23046875
5.01953125,-50.29296875,-37.59765625,-32.71484375,4.39453125
5.0234375,-67.3828125,-34.1796875,-16.11328125,-14.16015625
5.02734375,-69.3359375,-47.8515625,-13.671875,-5.859375
5.03125,-41.50390625,-46.875,-18.06640625,11.23046875
5.03515625,-31.25,-31.25,-24.4140625,1.46484375
5.0390625,-64.94140625,-20.99609375,-33.69140625,-28.3203125
5.04296875,-81.0546875,-23.4375,-33.203125,-37.109375
5.046875,-53.22265625,-24.4140625,-31.73828125,-25.390625
5.05078125,-42.48046875,-20.99609375,-35.64453125,-31.25
5.0546875,-60.546875,-20.5078125,-44.921875,-48.828125
5.05859375,-68.84765625,-20.99609375,-46.875,-45.8984375
5.0625,-69.3359375,-20.99609375,-48.828125,-41.015625
5.06640625,-59.08203125,-17.578125,-53.7109375,-39.55078125
5.0703125,-53.7109375,-16.6015625,-58.10546875,-40.52734375
5.07421875,-54.19921875,-19.53125,-55.6640625,-40.52734375
5.078125,-46.875,-21.484375,-53.22265625,-27.83203125
5.08203125,-36.62109375,-24.4140625,-54.6875,-43.45703125
5.0859375,-29.78515625,-31.25,-55.17578125,-46.38671875
5.08984375,-37.59765625,-28.80859375,-51.7578125,-37.59765625
5.09375,-23.4375,-31.25,-62.5,-28.80859375
5.09765625,-2.9296875,-37.109375,-71.2890625,-20.99609375
5.1015625,-30.76171875,-29.78515625,-56.640625,-49.31640625
5.10546875,-61.03515625,-21.97265625,-35.64453125,-61.03515625
5.109375,-65.4296875,-20.99609375,-23.92578125,-50.78125
5.11328125,-56.15234375,-19.04296875,-30.2734375,-47.36328125
5.1171875,-40.52734375,-17.578125,-28.80859375,-48.33984375
5.12109375,-47.8515625,-19.53125,-32.2265625,-36.62109375
5.125,-57.6171875,-19.53125,-45.8984375,-30.2734375
5.12890625,-42.48046875,-23.4375,-45.41015625,-36.62109375
5.1328125,-24.90234375,-20.99609375,-32.2265625,-29.296875
5.13671875,-33.203125,-20.5078125,-28.80859375,-44.43359375
5.140625,-70.3125,-29.78515625,-29.78515625,-49.8046875
5.14453125,-76.66015625,-37.59765625,-30.76171875,-45.41015625
5.1484375,-58.10546875,-37.59765625,-41.015625,-55.6640625
5.15234375,-53.7109375,-32.2265625,-42.48046875,-56.15234375
5.15625,-55.17578125,-24.90234375,-57.12890625,-60.05859375
5.16015625,-52.734375,-27.34375,-55.6640625,-55.17578125
5.1640625,-55.17578125,-31.25,-32.2265625,-46.38671875
5.16796875,-58.10546875,-29.78515625,-30.2734375,-50.78125
5.171875,-57.12890625,-36.62109375,-34.1796875,-50.78125
5.17578125,-52.734375,-37.109375,-32.71484375,-51.7578125
5.1796875,-33.203125,-24.4140625,-35.64453125,-45.41015625
5.18359375,-31.73828125,-23.4375,-31.73828125,-38.0859375
5.1875,-47.8515625,-26.3671875,-12.20703125,-48.33984375
5.19140625,-54.6875,-21.484375,-11.71875,-74.70703125
5.1953125,-55.6640625,-27.83203125,-23.4375,-86.42578125
5.19921875,-42.96875,-26.85546875,-34.1796875,-82.03125
5.203125,-52.24609375,-21.97265625,-38.57421875,-92.7734375
5.20703125,-78.125,-26.3671875,-29.296875,-121.09375
5.2109375,-72.75390625,-27.34375,-23.4375,-177.24609375
5.21484375,-42.96875,-37.59765625,-17.08984375,-256.8359375
5.21875,-28.3203125,-42.48046875,-30.2734375,-290.0390625
5.22265625,-32.71484375,-33.203125,-34.1796875,-278.80859375
5.2265625,-43.45703125,-37.109375,-16.6015625,-260.25390625
5.23046875,-53.22265625,-31.25,-21.484375,-240.72265625
5.234375,-41.015625,-20.01953125,-25.390625,-241.2109375
5.23828125,-33.203125,-22.94921875,-12.6953125,-242.1875
5.2421875,-51.7578125,-27.83203125,-12.6953125,-227.5390625
5.24609375,-44.921875,-24.4140625,-21.484375,-216.30859375
5.25,-40.52734375,-24.4140625,-26.3671875,-211.42578125
5.25390625,-60.05859375,-36.62109375,-25.390625,-200.1953125
5.2578125,-64.453125,-39.55078125,-23.92578125,-187.01171875
5.26171875,-47.8515625,-43.45703125,-33.203125,-183.10546875
5.265625,-38.0859375,-36.62109375,-32.71484375,-180.17578125
5.26953125,-55.17578125,-27.83203125,-27.83203125,-172.8515625
5.2734375,-77.63671875,-28.80859375,-26.3671875,-166.015625
5.27734375,-73.73046875,-30.76171875,-19.04296875,-152.83203125
5.28125,-66.40625,-34.1796875,-6.8359375,-130.37109375
5.28515625,-68.359375,-41.015625,-19.53125,-134.765625
5.2890625,-62.98828125,-34.66796875,-27.34375,-133.7890625
5.29296875,-57.6171875,-21.97265625,-17.08984375,-117.1875
5.296875,-62.01171875,-22.94921875,-31.25,-115.72265625
5.30078125,-66.40625,-25.87890625,-25.87890625,-112.79296875
5.3046875,-71.77734375,-31.73828125,-9.27734375,-106.93359375
5.30859375,-71.77734375,-34.1796875,-10.7421875,-105.95703125
5.3125,-53.22265625,-32.2265625,-19.04296875,-108.88671875
5.31640625,-42.96875,-31.73828125,-18.06640625,-111.328125
5.3203125,-57.12890625,-30.2734375,-14.16015625,-104.00390625
5.32421875,-78.61328125,-31.73828125,-19.04296875,-95.703125
5.328125,-80.56640625,-31.25,-20.99609375,-86.9140625
5.33203125,-61.03515625,-31.25,-18.5546875,-83.49609375
5.3359375,-52.24609375,-30.2734375,-15.13671875,-93.26171875
5.33984375,-67.3828125,-27.83203125,-23.92578125,-105.95703125
5.34375,-74.21875,-28.3203125,-27.34375,-102.05078125
5.34765625,-60.546875,-30.76171875,-24.4140625,-94.23828125
5.3515625,-67.3828125,-34.66796875,-30.76171875,-103.02734375
5.35546875,-83.984375,-35.64453125,-29.78515625,-105.95703125
5.359375,-92.28515625,-26.85546875,-30.2734375,-106.4453125
5.36328125,-85.9375,-22.4609375,-31.25,-104.00390625
5.3671875,-69.82421875,-29.78515625,-30.2734375,-99.12109375
5.37109375,-58.59375,-47.36328125,-19.53125,-72.75390625
5.375,-52.734375,-43.9453125,-17.578125,-60.05859375
5.37890625,-66.89453125,-29.78515625,-22.94921875,-92.7734375
5.3828125,-62.01171875,-35.15625,-20.01953125,-94.23828125
5.38671875,-41.50390625,-31.25,-20.01953125,-73.73046875
5.390625,-52.24609375,-20.01953125,-22.94921875,-80.078125
5.39453125,-43.9453125,-19.53125,-32.2265625,-65.91796875
5.3984375,-13.18359375,-22.94921875,-42.48046875,-49.8046875
5.40234375,-5.859375,-26.3671875,-49.8046875,-68.84765625
5.40625,-1.953125,-23.4375,-44.921875,-57.6171875
5.41015625,-2.9296875,-20.5078125,-35.64453125,-36.62109375
5.4140625,-3.90625,-20.01953125,-41.50390625,-25.87890625
5.41796875,0.9765625,-16.11328125,-47.36328125,-15.625
5.421875,-0.9765625,-18.06640625,-38.0859375,2.9296875
5.42578125,-1.953125,-23.92578125,-28.80859375,2.44140625
5.4296875,6.34765625,-27.34375,-34.1796875,-11.23046875
5.43359375,8.30078125,-20.5078125,-39.55078125,-14.6484375
5.4375,2.9296875,-6.34765625,-31.73828125,-23.4375
5.44140625,-7.8125,-6.8359375,-30.2734375,-19.04296875
5.4453125,-5.859375,-20.5078125,-28.80859375,-0.9765625
5.44921875,8.30078125,-25.390625,-24.90234375,2.9296875
5.453125,-3.90625,-24.90234375,-32.71484375,-4.8828125
5.45703125,-19.04296875,-22.4609375,-35.15625,-4.39453125
5.4609375,-7.8125,-25.87890625,-25.390625,8.30078125
5.46484375,12.6953125,-30.2734375,-25.390625,13.18359375
5.46875,6.34765625,-23.4375,-34.1796875,-12.6953125
5.47265625,-8.7890625,-25.390625,-43.9453125,-17.08984375
5.4765625,-17.08984375,-22.94921875,-41.9921875,0.48828125
5.48046875,-15.13671875,-16.6015625,-14.6484375,2.44140625
5.484375,-14.16015625,-23.4375,-5.859375,-4.39453125
5.48828125,-29.78515625,-21.97265625,-22.4609375,-15.625
5.4921875,-33.203125,-19.53125,-38.0859375,-10.25390625
5.49609375,-18.06640625,-22.94921875,-36.1328125,9.27734375
5.5,-15.13671875,-16.11328125,-28.3203125,-2.44140625
5.50390625,-28.80859375,-16.11328125,-30.2734375,-7.8125
5.5078125,-44.43359375,-18.5546875,-30.76171875,-8.7890625
5.51171875,-44.43359375,-21.484375,-18.06640625,-11.71875
5.515625,-32.2265625,-23.4375,-14.16015625,-0.48828125
5.51953125,-39.55078125,-24.4140625,-16.6015625,3.41796875
5.5234375,-51.7578125,-25.87890625,-20.5078125,4.39453125
5.52734375,-57.6171875,-33.69140625,-21.484375,11.23046875
5.53125,-50.29296875,-39.0625,-22.94921875,16.6015625
5.53515625,-35.15625,-38.57421875,-39.0625,22.94921875
5.5390625,-33.69140625,-35.64453125,-40.0390625,12.20703125
5.54296875,-37.59765625,-28.80859375,-25.87890625,2.44140625
5.546875,-26.85546875,-20.01953125,-14.6484375,9.27734375
5.55078125,-21.97265625,-21.484375,-20.01953125,-0.48828125
5.5546875,-44.921875,-34.1796875,-40.52734375,-13.18359375
5.55859375,-63.96484375,-31.73828125,-35.15625,-7.8125
5.5625,-51.26953125,-27.34375,-30.76171875,10.25390625
5.56640625,-15.625,-26.85546875,-26.3671875,19.53125
5.5703125,-12.6953125,-26.3671875,-18.06640625,10.7421875
5.57421875,-45.8984375,-25.87890625,-17.08984375,5.37109375
5.578125,-51.7578125,-26.85546875,-17.08984375,1.46484375
5.58203125,-38.57421875,-27.83203125,-15.13671875,5.37109375
5.5859375,-43.9453125,-29.78515625,-16.11328125,13.671875
5.58984375,-51.26953125,-32.2265625,-17.578125,14.6484375
5.59375,-48.828125,-30.2734375,-18.06640625,8.7890625
5.59765625,-41.50390625,-26.85546875,-22.4609375,-3.90625
5.6015625,-40.52734375,-30.2734375,-22.94921875,-13.671875
5.60546875,-49.31640625,-32.2265625,-21.97265625,-11.23046875
5.609375,-45.41015625,-26.85546875,-21.97265625,-6.34765625
5.61328125,-33.203125,-28.3203125,-21.97265625,0.9765625
5.6171875,-25.390625,-26.3671875,-23.92578125,8.30078125
5.62109375,-17.578125,-19.53125,-18.5546875,5.37109375
5.625,-10.25390625,-16.6015625,-20.5078125,1.46484375
5.62890625,-19.53125,-25.390625,-22.4609375,1.46484375
5.6328125,-36.62109375,-36.1328125,-12.20703125,-1.953125
5.63671875,-53.22265625,-36.1328125,-12.6953125,-15.13671875
5.640625,-64.94140625,-31.25,-21.97265625,-21.97265625
5.64453125,-70.80078125,-26.3671875,-30.2734375,-19.53125
5.6484375,-69.82421875,-24.4140625,-23.4375,-17.08984375
5.65234375,-68.84765625,-26.85546875,-12.20703125,-23.92578125
5.65625,-73.73046875,-35.64453125,-11.23046875,-29.296875
5.66015625,-69.82421875,-32.71484375,-14.16015625,-12.20703125
5.6640625,-60.546875,-20.01953125,-30.2734375,-9.765625
5.66796875,-54.19921875,-24.4140625,-42.96875,-28.3203125
5.671875,-53.22265625,-30.76171875,-29.296875,-35.15625
5.67578125,-52.24609375,-22.94921875,-17.578125,-30.2734375
5.6796875,-50.78125,-20.5078125,-19.53125,-20.5078125
5.68359375,-50.29296875,-28.80859375,-25.390625,-19.53125
5.6875,-52.734375,-27.83203125,-22.94921875,-25.87890625
5.69140625,-52.24609375,-30.2734375,-19.53125,-25.87890625
5.6953125,-42.48046875,-42.48046875,-16.6015625,-18.06640625
5.69921875,-31.25,-35.15625,-11.71875,-8.7890625
5.703125,-30.76171875,-23.92578125,-21.97265625,1.46484375
5.70703125,-53.22265625,-25.87890625,-24.90234375,-8.7890625
5.7109375,-64.94140625,-25.87890625,-22.94921875,-33.203125
5.71484375,-49.31640625,-24.90234375,-23.92578125,-34.1796875
5.71875,-52.734375,-22.94921875,-21.484375,-29.296875
5.72265625,-61.03515625,-25.87890625,-20.01953125,-32.2265625
5.7265625,-57.12890625,-33.203125,-19.04296875,-30.2734375
5.73046875,-39.0625,-31.25,-17.578125,-24.4140625
5.734375,-30.2734375,-28.3203125,-21.484375,-25.390625
5.73828125,-36.62109375,-27.34375,-24.4140625,-22.94921875
5.7421875,-25.390625,-28.3203125,-20.01953125,-8.30078125
5.74609375,-17.578125,-36.1328125,-23.4375,-8.7890625
5.75,-26.3671875,-41.50390625,-30.2734375,-19.04296875
5.75390625,-42.48046875,-33.69140625,-32.2265625,-24.90234375
5.7578125,-56.640625,-23.92578125,-27.83203125,-43.9453125
5.76171875,-48.828125,-23.92578125,-19.04296875,-45.41015625
5.765625,-32.2265625,-23.4375,-13.18359375,-30.2734375
5.76953125,-43.9453125,-23.92578125,-30.2734375,-28.3203125
5.7734375,-52.24609375,-22.4609375,-44.43359375,-35.64453125
5.77734375,-46.875,-32.2265625,-28.3203125,-46.875
5.78125,-45.8984375,-38.0859375,-17.578125,-55.6640625
5.78515625,-50.78125,-31.25,-17.578125,-62.98828125
5.7890625,-72.265625,-33.69140625,-21.484375,-67.87109375
5.79296875,-68.359375,-31.73828125,-26.3671875,-47.8515625
5.796875,-44.921875,-27.83203125,-26.3671875,-28.3203125
5.80078125,-44.43359375,-32.71484375,-17.08984375,-37.109375
5.8046875,-54.6875,-34.1796875,-14.6484375,-47.36328125
5.80859375,-51.26953125,-39.55078125,-16.6015625,-39.0625
5.8125,-44.921875,-57.6171875,-11.71875,-25.390625
5.81640625,-43.9453125,-47.36328125,-4.39453125,-27.83203125
5.8203125,-52.24609375,-27.83203125,-12.6953125,-43.45703125
5.82421875,-71.2890625,-29.78515625,-26.85546875,-48.33984375
5.828125,-74.21875,-32.71484375,-23.4375,-27.83203125
5.83203125,-52.24609375,-31.25,-18.5546875,-24.4140625
5.8359375,-39.0625,-25.390625,-16.6015625,-39.55078125
5.83984375,-49.31640625,-23.92578125,-10.7421875,-39.55078125
5.84375,-54.19921875,-27.83203125,-10.25390625,-30.76171875
5.84765625,-34.66796875,-28.3203125,-8.7890625,-22.4609375
5.8515625,-28.80859375,-26.85546875,-11.23046875,-23.92578125
5.85546875,-47.36328125,-27.34375,-17.578125,-28.80859375
5.859375,-52.734375,-34.1796875,-15.625,-26.3671875
5.86328125,-45.41015625,-39.0625,-12.20703125,-21.97265625
5.8671875,-33.203125,-45.8984375,-8.30078125,-18.5546875
5.87109375,-44.921875,-47.8515625,-11.23046875,-22.4609375
5.875,-74.70703125,-34.1796875,-20.5078125,-32.2265625
5.87890625,-75.1953125,-27.83203125,-15.625,-29.296875
5.8828125,-53.22265625,-30.2734375,-16.6015625,-22.94921875
5.88671875,-52.734375,-22.94921875,-24.4140625,-31.25
5.890625,-59.08203125,-20.01953125,-23.4375,-35.15625
5.89453125,-46.38671875,-27.34375,-23.4375,-22.94921875
5.8984375,-33.69140625,-31.25,-25.87890625,-28.80859375
5.90234375,-36.62109375,-33.69140625,-24.4140625,-35.64453125
5.90625,-52.24609375,-32.71484375,-23.4375,-33.203125
5.91015625,-56.15234375,-27.83203125,-19.53125,-26.85546875
5.9140625,-45.8984375,-24.90234375,-18.06640625,-25.390625
5.91796875,-41.015625,-22.4609375,-30.2734375,-32.2265625
5.921875,-51.7578125,-23.4375,-43.9453125,-29.296875
5.92578125,-61.03515625,-24.4140625,-35.64453125,-24.90234375
5.9296875,-51.7578125,-27.83203125,-23.92578125,-25.87890625
5.93359375,-50.78125,-28.80859375,-21.97265625,-28.3203125
5.9375,-50.78125,-28.3203125,-17.578125,-39.0625
5.94140625,-50.29296875,-22.94921875,-16.6015625,-48.828125
5.9453125,-59.5703125,-20.01953125,-20.99609375,-39.55078125
5.94921875,-57.6171875,-24.90234375,-23.4375,-34.1796875
5.953125,-42.96875,-23.92578125,-19.53125,-30.2734375
5.95703125,-49.8046875,-25.390625,-22.94921875,-23.4375
5.9609375,-63.4765625,-30.2734375,-26.85546875,-23.92578125
5.96484375,-42.48046875,-28.80859375,-24.4140625,-25.390625
5.96875,-32.2265625,-23.4375,-23.92578125,-25.87890625
5.97265625,-37.59765625,-21.484375,-28.80859375,-23.92578125
5.9765625,-40.52734375,-28.80859375,-31.73828125,-29.78515625
5.98046875,-30.2734375,-28.80859375,-28.80859375,-33.69140625
5.984375,-19.53125,-28.3203125,-29.296875,-22.4609375
5.98828125,-35.64453125,-29.78515625,-32.2265625,-24.90234375
5.9921875,-46.875,-22.94921875,-31.25,-29.78515625
5.99609375,-25.390625,-23.4375,-25.87890625,-21.97265625
6.0,-26.85546875,-28.3203125,-30.76171875,-36.62109375
6.00390625,-53.7109375,-33.203125,-31.25,-47.8515625
6.0078125,-63.96484375,-35.15625,-24.4140625,-30.2734375
6.01171875,-60.05859375,-26.85546875,-23.4375,-31.73828125
6.015625,-33.69140625,-26.85546875,-26.3671875,-40.52734375
6.01953125,-27.83203125,-26.85546875,-22.4609375,-33.203125
6.0234375,-35.64453125,-24.90234375,-25.390625,-41.9921875
6.02734375,-49.31640625,-32.2265625,-30.76171875,-40.0390625
6.03125,-48.33984375,-32.2265625,-27.83203125,-30.76171875
6.03515625,-36.1328125,-28.80859375,-28.3203125,-40.52734375
6.0390625,-43.9453125,-23.4375,-27.34375,-28.80859375
6.04296875,-40.52734375,-21.484375,-24.90234375,-14.16015625
6.046875,-33.203125,-18.5546875,-32.71484375,-35.15625
6.05078125,-29.78515625,-17.578125,-34.1796875,-46.38671875
6.0546875,-38.57421875,-23.4375,-27.34375,-51.26953125
6.05859375,-45.41015625,-25.390625,-27.34375,-46.38671875
6.0625,-41.015625,-25.390625,-24.90234375,-37.109375
6.06640625,-55.6640625,-25.390625,-26.3671875,-48.33984375
6.0703125,-60.05859375,-24.90234375,-36.1328125,-56.15234375
6.07421875,-60.05859375,-26.3671875,-34.66796875,-42.96875
6.078125,-56.640625,-31.25,-26.85546875,-49.31640625
6.08203125,-29.78515625,-39.55078125,-26.85546875,-51.26953125
6.0859375,-22.94921875,-32.2265625,-27.83203125,-58.59375
6.08984375,-40.0390625,-25.87890625,-26.85546875,-59.5703125
6.09375,-37.59765625,-28.3203125,-27.83203125,-25.87890625
6.09765625,-20.99609375,-26.85546875,-23.4375,-8.30078125
6.1015625,-21.97265625,-26.85546875,-24.4140625,-23.4375
6.10546875,-24.90234375,-24.90234375,-29.78515625,-30.76171875
6.109375,-39.55078125,-26.3671875,-24.90234375,-25.87890625
6.11328125,-45.41015625,-34.66796875,-29.296875,-21.97265625
6.1171875,-32.2265625,-42.96875,-24.90234375,-20.99609375
6.12109375,-36.62109375,-37.109375,-21.484375,-52.24609375
6.125,-53.7109375,-30.2734375,-19.53125,-61.03515625
6.12890625,-48.828125,-30.76171875,-11.71875,-38.0859375
6.1328125,-35.15625,-31.73828125,-17.578125,-50.29296875
6.13671875,-42.96875,-35.64453125,-21.97265625,-59.5703125
6.140625,-41.9921875,-36.1328125,-17.578125,-51.7578125
6.14453125,-42.48046875,-35.15625,-15.625,-29.78515625
6.1484375,-53.7109375,-34.66796875,-13.18359375,-22.94921875
6.15234375,-77.1484375,-32.71484375,-15.13671875,-36.62109375
6.15625,-83.984375,-30.2734375,-20.99609375,-38.0859375
6.16015625,-83.984375,-27.83203125,-21.484375,-27.83203125
6.1640625,-77.63671875,-31.25,-19.04296875,-7.32421875
6.16796875,-62.98828125,-31.73828125,-16.11328125,-22.4609375
6.171875,-74.21875,-33.203125,-14.16015625,-40.0390625
6.17578125,-75.68359375,-31.25,-14.6484375,-35.64453125
6.1796875,-57.6171875,-31.73828125,-17.578125,-37.109375
6.18359375,-49.31640625,-38.0859375,-25.390625,-30.76171875
6.1875,-50.78125,-39.0625,-22.94921875,-27.83203125
6.19140625,-57.12890625,-34.1796875,-14.16015625,-29.296875
6.1953125,-66.89453125,-32.2265625,-15.13671875,-18.5546875
6.19921875,-46.875,-39.55078125,-25.390625,-24.90234375
6.203125,-42.96875,-32.2265625,-23.92578125,-34.1796875
6.20703125,-62.5,-24.4140625,-18.5546875,-45.41015625
6.2109375,-41.9921875,-23.92578125,-18.06640625,-42.96875
6.21484375,-23.4375,-25.87890625,-17.578125,-16.11328125
6.21875,-15.13671875,-26.3671875,-22.4609375,-12.20703125
6.22265625,-35.15625,-21.484375,-33.69140625,-19.04296875
6.2265625,-71.2890625,-23.92578125,-27.34375,-18.06640625
6.23046875,-55.6640625,-26.85546875,-16.11328125,-5.859375
6.234375,-37.59765625,-23.92578125,-16.11328125,9.27734375
6.23828125,-52.24609375,-25.87890625,-13.18359375,12.6953125
6.2421875,-64.94140625,-25.87890625,-15.13671875,6.34765625
6.24609375,-50.78125,-22.4609375,-12.6953125,11.23046875
6.25,-34.66796875,-17.578125,-23.4375,27.34375
6.25390625,-53.22265625,-14.6484375,-40.0390625,20.99609375
6.2578125,-61.03515625,-19.53125,-33.69140625,18.5546875
6.26171875,-24.90234375,-20.5078125,-27.34375,40.0390625
6.265625,-17.578125,-19.53125,-17.578125,36.62109375
6.26953125,-20.99609375,-29.78515625,-11.23046875,28.3203125
6.2734375,-34.1796875,-36.62109375,-17.578125,15.625
6.27734375,-51.7578125,-32.2265625,-22.94921875,6.34765625
6.28125,-36.1328125,-25.390625,-30.76171875,26.85546875
6.28515625,-39.0625,-12.6953125,-51.7578125,22.94921875
6.2890625,-77.63671875,-12.6953125,-47.8515625,-0.48828125
6.29296875,-60.05859375,-28.80859375,-21.97265625,9.27734375
6.296875,-25.390625,-30.2734375,-11.23046875,40.0390625
6.30078125,-32.71484375,-29.296875,-13.18359375,40.0390625
6.3046875,-35.64453125,-27.83203125,-20.5078125,8.7890625
6.30859375,-25.390625,-23.4375,-17.578125,24.4140625
6.3125,-20.99609375,-32.71484375,-10.7421875,53.7109375
6.31640625,-33.69140625,-36.1328125,-11.23046875,49.31640625
6.3203125,-42.96875,-24.90234375,-17.578125,41.9921875
6.32421875,-62.5,-18.06640625,-21.97265625,48.828125
6.328125,-78.125,-20.5078125,-18.06640625,51.26953125
6.33203125,-61.03515625,-26.85546875,-17.578125,39.55078125
6.3359375,-55.17578125,-33.69140625,-21.484375,31.73828125
6.33984375,-67.3828125,-35.15625,-15.13671875,59.5703125
6.34375,-38.57421875,-33.69140625,-8.7890625,72.265625
6.34765625,-41.9921875,-30.2734375,-22.4609375,28.3203125
6.3515625,-61.5234375,-30.2734375,-29.296875,24.90234375
6.35546875,-65.4296875,-33.203125,-19.04296875,80.078125
6.359375,-74.21875,-31.73828125,-20.99609375,104.00390625
6.36328125,-38.57421875,-29.296875,-24.90234375,124.51171875
6.3671875,-15.13671875,-32.2265625,-23.92578125,129.8828125
6.37109375,-32.71484375,-30.76171875,-27.83203125,97.16796875
6.375,-32.71484375,-28.80859375,-33.203125,85.44921875
6.37890625,-13.671875,-33.69140625,-29.296875,102.05078125
6.3828125,-5.859375,-30.2734375,-29.78515625,95.21484375
6.38671875,-19.04296875,-20.5078125,-28.80859375,78.61328125
6.390625,-41.50390625,-19.04296875,-25.87890625,74.70703125
6.39453125,-48.33984375,-18.5546875,-23.92578125,76.66015625
6.3984375,-50.78125,-19.53125,-19.04296875,100.5859375
6.40234375,-50.78125,-19.53125,-11.23046875,86.42578125
6.40625,-52.734375,-14.16015625,-9.765625,61.5234375
6.41015625,-51.26953125,-14.16015625,-14.6484375,117.1875
6.4140625,-36.62109375,-13.671875,-20.01953125,179.19921875
6.41796875,-29.78515625,-13.18359375,-27.34375,219.7265625
6.421875,-20.01953125,-13.671875,-41.9921875,271.97265625
6.42578125,-0.9765625,-17.08984375,-45.41015625,316.40625
6.4296875,19.04296875,-13.18359375,-30.2734375,369.140625
6.43359375,27.83203125,-13.671875,-21.484375,419.921875
6.4375,34.66796875,-20.5078125,-13.18359375,466.796875
6.44140625,20.99609375,-19.53125,-13.671875,484.86328125
6.4453125,10.25390625,-24.4140625,-20.01953125,476.5625
6.44921875,30.2734375,-20.5078125,-22.94921875,478.515625
6.453125,23.4375,-9.765625,-32.71484375,460.9375
6.45703125,33.203125,-8.7890625,-32.2265625,459.9609375
6.4609375,32.71484375,-15.625,-14.6484375,469.7265625
6.46484375,6.34765625,-22.4609375,-5.859375,441.89453125
6.46875,7.8125,-19.04296875,-10.7421875,380.859375
6.47265625,0.9765625,-28.80859375,-14.6484375,349.12109375
6.4765625,-38.0859375,-41.9921875,-13.671875,348.14453125
6.48046875,-49.8046875,-33.203125,-12.6953125,332.03125
6.484375,-38.0859375,-37.59765625,-9.27734375,315.4296875
6.48828125,-46.38671875,-38.57421875,-3.90625,316.40625
6.4921875,-49.8046875,-28.3203125,-10.7421875,322.265625
6.49609375,-31.73828125,-26.3671875,-13.671875,299.8046875
6.5,-20.01953125,-25.87890625,-11.23046875,276.85546875
6.50390625,-41.9921875,-27.83203125,-7.8125,256.34765625
6.5078125,-48.828125,-23.92578125,-2.9296875,226.07421875
6.51171875,-39.55078125,-23.4375,-6.8359375,227.05078125
6.515625,-49.8046875,-29.296875,-14.16015625,248.53515625
6.51953125,-77.63671875,-24.90234375,-23.92578125,269.04296875
6.5234375,-84.9609375,-19.53125,-20.5078125,277.34375
6.52734375,-77.63671875,-20.5078125,3.90625,293.45703125
6.53125,-69.82421875,-21.97265625,14.6484375,315.4296875
6.53515625,-75.68359375,-21.97265625,3.41796875,317.87109375
6.5390625,-102.5390625,-28.3203125,-1.953125,326.171875
6.54296875,-103.02734375,-32.2265625,-3.90625,348.6328125
6.546875,-76.66015625,-26.3671875,-10.25390625,370.60546875
6.55078125,-80.078125,-23.4375,-8.7890625,355.95703125
6.5546875,-104.00390625,-27.83203125,-5.859375,320.3125
6.55859375,-109.86328125,-33.203125,-3.41796875,309.08203125
6.5625,-114.74609375,-30.2734375,-7.32421875,293.45703125
6.56640625,-117.67578125,-25.87890625,-14.16015625,261.71875
6.5703125,-117.1875,-28.3203125,-11.23046875,229.98046875
6.57421875,-111.81640625,-29.78515625,-18.5546875,218.26171875
6.578125,-109.375,-24.90234375,-26.3671875,217.28515625
6.58203125,-100.09765625,-27.34375,-22.4609375,214.35546875
6.5859375,-115.72265625,-34.1796875,-21.97265625,210.44921875
6.58984375,-145.99609375,-39.0625,-16.11328125,180.6640625
6.59375,-135.7421875,-37.109375,-5.859375,179.19921875
6.59765625,-115.72265625,-42.48046875,-1.46484375,201.171875
6.6015625,-99.12109375,-43.45703125,-4.39453125,172.8515625
6.60546875,-98.6328125,-24.4140625,-6.8359375,145.5078125
6.609375,-130.37109375,-17.578125,-10.7421875,153.3203125
6.61328125,-136.23046875,-17.578125,-18.06640625,143.06640625
6.6171875,-109.375,-16.6015625,-19.53125,150.87890625
6.62109375,-108.88671875,-20.01953125,-22.4609375,147.94921875
6.625,-107.91015625,-22.4609375,-23.92578125,151.85546875
6.62890625,-103.02734375,-24.90234375,-20.5078125,172.8515625
6.6328125,-75.1953125,-24.4140625,-20.5078125,160.64453125
6.63671875,-59.08203125,-26.3671875,-15.625,146.484375
6.640625,-66.40625,-24.90234375,-15.13671875,148.92578125
6.64453125,-68.84765625,-21.484375,-20.5078125,145.01953125
6.6484375,-35.15625,-24.4140625,-16.6015625,125.48828125
6.65234375,-10.7421875,-25.87890625,-5.859375,106.93359375
6.65625,-13.671875,-24.4140625,-16.11328125,92.7734375
6.66015625,-21.97265625,-24.4140625,-31.25,103.02734375
6.6640625,-1.46484375,-29.296875,-21.97265625,111.328125
6.66796875,0.48828125,-26.85546875,-13.18359375,90.8203125
6.671875,-35.15625,-23.4375,-3.41796875,80.56640625
6.67578125,-28.80859375,-22.4609375,-0.48828125,58.59375
6.6796875,-18.06640625,-28.80859375,-9.27734375,59.08203125
6.68359375,-27.83203125,-43.45703125,-15.625,69.3359375
6.6875,-23.4375,-41.015625,-17.08984375,64.94140625
6.69140625,-15.625,-19.53125,-13.671875,76.171875
6.6953125,-17.578125,-11.23046875,-13.18359375,86.9140625
6.69921875,-2.9296875,-11.71875,-16.6015625,68.84765625
6.703125,-5.859375,-13.18359375,-18.06640625,64.94140625
6.70703125,-11.23046875,-14.6484375,-14.16015625,89.84375
6.7109375,13.18359375,-15.13671875,-11.23046875,169.921875
6.71484375,22.94921875,-21.97265625,-11.71875,197.75390625
6.71875,10.7421875,-23.4375,-8.30078125,189.94140625
6.72265625,-18.5546875,-23.4375,-5.37109375,205.56640625
6.7265625,-25.87890625,-20.99609375,-10.25390625,200.68359375
6.73046875,-16.6015625,-20.99609375,-15.13671875,214.84375
6.734375,-3.90625,-14.16015625,-17.08984375,170.41015625
6.73828125,-20.01953125,-10.7421875,-17.578125,116.69921875
6.7421875,-43.9453125,-23.92578125,-23.4375,141.6015625
6.74609375,19.04296875,-17.578125,-23.4375,189.453125
6.75,10.25390625,-12.6953125,-21.484375,199.21875
6.75390625,-54.19921875,-11.23046875,-25.87890625,154.78515625
6.7578125,-62.5,-10.25390625,-28.3203125,127.9296875
6.76171875,-60.546875,-20.99609375,-26.3671875,116.2109375
6.765625,8.7890625,-18.06640625,-22.94921875,128.41796875
6.76953125,26.3671875,-17.08984375,-20.99609375,162.59765625
6.7734375,-41.50390625,-21.97265625,-31.73828125,151.3671875
6.77734375,-60.546875,-20.01953125,-36.62109375,146.484375
6.78125,-32.2265625,-22.94921875,-23.4375,179.19921875
6.78515625,-26.85546875,-23.92578125,-26.3671875,170.8984375
6.7890625,-44.43359375,-21.97265625,-26.85546875,115.234375
6.79296875,-27.83203125,-18.06640625,-22.94921875,126.953125
6.796875,-14.6484375,-17.578125,-31.73828125,179.6875
6.80078125,-20.5078125,-28.3203125,-32.71484375,258.7890625
6.8046875,-23.92578125,-30.2734375,-29.296875,325.1953125
6.80859375,-29.296875,-25.390625,-33.203125,294.43359375
6.8125,-41.015625,-24.90234375,-31.25,305.17578125
6.81640625,-27.83203125,-23.4375,-31.25,414.0625
6.8203125,-48.828125,-26.3671875,-30.2734375,415.52734375
6.82421875,-76.171875,-28.80859375,-24.4140625,353.02734375
6.828125,-71.77734375,-25.87890625,-22.4609375,336.9140625
6.83203125,-70.3125,-23.4375,-21.97265625,314.453125
6.8359375,-78.125,-20.01953125,-26.3671875,433.10546875
6.83984375,-90.8203125,-22.4609375,-29.296875,616.2109375
6.84375,-101.5625,-21.484375,-28.80859375,640.625
6.84765625,-82.03125,-20.99609375,-32.71484375,600.09765625
6.8515625,-62.01171875,-25.87890625,-30.2734375,578.125
6.85546875,-49.8046875,-19.53125,-22.94921875,581.0546875
6.859375,-56.640625,-16.11328125,-18.5546875,556.640625
6.86328125,-56.640625,-15.13671875,-19.53125,523.4375
6.8671875,-59.5703125,-15.13671875,-24.4140625,496.58203125
6.87109375,-66.40625,-18.06640625,-24.90234375,458.49609375
6.875,-55.17578125,-20.01953125,-22.94921875,436.03515625
6.87890625,-60.05859375,-18.5546875,-23.4375,418.9453125
6.8828125,-66.89453125,-18.5546875,-26.85546875,401.3671875
6.88671875,-66.40625,-13.671875,-28.80859375,416.015625
6.890625,-103.02734375,-10.7421875,-22.94921875,417.96875
6.89453125,-91.30859375,-21.97265625,-21.484375,381.8359375
6.8984375,-64.453125,-29.78515625,-23.4375,401.3671875
6.90234375,-90.8203125,-32.71484375,-21.97265625,368.65234375
6.90625,-98.14453125,-36.1328125,-23.4375,272.94921875
6.91015625,-80.078125,-35.64453125,-20.99609375,265.625
6.9140625,-73.73046875,-27.34375,-29.296875,245.1171875
6.91796875,-78.125,-20.5078125,-37.59765625,195.3125
6.921875,-81.0546875,-16.6015625,-33.203125,262.20703125
6.92578125,-67.87109375,-18.06640625,-31.25,272.4609375
6.9296875,-56.15234375,-26.3671875,-28.3203125,208.49609375
6.93359375,-60.05859375,-28.3203125,-29.78515625,199.21875
6.9375,-84.9609375,-28.3203125,-33.203125,167.96875
6.94140625,-105.95703125,-23.92578125,-28.3203125,201.66015625
6.9453125,-83.0078125,-20.5078125,-25.390625,237.79296875
6.94921875,-63.4765625,-25.390625,-21.97265625,230.46875
6.953125,-56.15234375,-28.80859375,-15.625,223.14453125
6.95703125,-45.8984375,-26.3671875,-15.625,231.4453125
6.9609375,-21.484375,-18.5546875,-20.5078125,235.83984375
6.96484375,-32.2265625,-17.08984375,-29.296875,203.61328125
6.96875,-78.125,-19.53125,-30.2734375,159.1796875
6.97265625,-76.171875,-18.06640625,-27.34375,156.73828125
6.9765625,-50.29296875,-19.04296875,-28.80859375,160.15625
6.98046875,-26.85546875,-15.625,-30.2734375,187.01171875
6.984375,-27.34375,-16.11328125,-34.66796875,211.42578125
6.98828125,-38.0859375,-17.08984375,-44.921875,206.0546875
6.9921875,-31.25,-14.16015625,-41.015625,221.6796875
6.99609375,-39.0625,-20.01953125,-33.203125,246.58203125
7.0,-36.1328125,-23.92578125,-32.71484375,256.34765625
7.00390625,-38.57421875,-25.87890625,-29.78515625,245.1171875
7.0078125,-49.31640625,-24.4140625,-33.69140625,249.0234375
7.01171875,-30.2734375,-16.11328125,-37.59765625,262.20703125
7.015625,-24.4140625,-20.99609375,-36.1328125,267.578125
7.01953125,-30.2734375,-27.34375,-37.109375,255.859375
7.0234375,-41.015625,-22.4609375,-36.62109375,243.1640625
7.02734375,-50.78125,-20.99609375,-30.2734375,265.625
7.03125,-40.0390625,-20.99609375,-26.85546875,280.76171875
7.03515625,-26.3671875,-18.5546875,-28.80859375,284.66796875
7.0390625,-32.71484375,-20.01953125,-26.3671875,280.2734375
7.04296875,-21.484375,-19.04296875,-22.94921875,292.96875
7.046875,-6.34765625,-16.11328125,-25.390625,298.33984375
7.05078125,-6.34765625,-18.5546875,-29.296875,287.59765625
7.0546875,3.41796875,-21.97265625,-32.2265625,281.25
7.05859375,-27.83203125,-22.4609375,-37.109375,316.89453125
7.0625,-42.96875,-18.5546875,-32.2265625,401.3671875
7.06640625,-15.625,-18.5546875,-29.78515625,525.390625
7.0703125,-6.34765625,-20.01953125,-30.2734375,581.0546875
7.07421875,-0.48828125,-19.53125,-25.390625,591.796875
7.078125,-5.859375,-24.90234375,-25.390625,580.56640625
7.08203125,-6.34765625,-26.3671875,-27.83203125,552.24609375
7.0859375,8.30078125,-20.01953125,-29.296875,551.7578125
7.08984375,8.30078125,-15.625,-28.3203125,536.62109375
7.09375,14.16015625,-16.11328125,-26.3671875,528.3203125
7.09765625,11.23046875,-15.625,-26.3671875,517.578125
7.1015625,-1.46484375,-17.578125,-25.390625,501.953125
7.10546875,-17.578125,-20.01953125,-25.390625,447.75390625
7.109375,-20.99609375,-18.06640625,-27.34375,361.328125
7.11328125,-26.3671875,-19.53125,-28.80859375,306.640625
7.1171875,-26.3671875,-23.4375,-28.80859375,267.578125
7.12109375,-22.4609375,-21.484375,-33.203125,228.02734375
7.125,-67.87109375,-30.76171875,-38.57421875,175.78125
7.12890625,-67.3828125,-46.38671875,-41.015625,223.6328125
7.1328125,-65.4296875,-52.24609375,-43.9453125,308.59375
7.13671875,-80.56640625,-51.26953125,-58.10546875,309.08203125
7.140625,-70.3125,-44.921875,-59.5703125,296.875
7.14453125,-96.19140625,-49.8046875,-46.38671875,271.484375
7.1484375,-94.7265625,-57.6171875,-42.96875,253.90625
7.15234375,-89.35546875,-46.38671875,-38.0859375,246.58203125
7.15625,-85.44921875,-40.0390625,-32.71484375,205.56640625
7.16015625,-62.98828125,-41.50390625,-30.2734375,214.35546875
7.1640625,-74.21875,-34.1796875,-26.85546875,226.07421875
7.16796875,-73.73046875,-31.25,-25.87890625,182.12890625
7.171875,-34.66796875,-27.34375,-17.578125,174.31640625
7.17578125,-50.78125,-21.97265625,-2.44140625,192.3828125
7.1796875,-57.6171875,-22.4609375,-1.953125,187.5
7.18359375,-25.87890625,-22.4609375,-5.37109375,175.29296875
7.1875,-31.25,-23.92578125,-1.953125,164.55078125
7.19140625,-17.578125,-23.4375,0.0,162.109375
7.1953125,-4.39453125,-25.390625,0.48828125,168.45703125
7.19921875,9.765625,-25.87890625,-2.9296875,146.484375
7.203125,40.0390625,-26.3671875,-3.41796875,143.5546875
7.20703125,29.296875,-28.80859375,8.30078125,130.37109375
7.2109375,-0.9765625,-24.90234375,8.7890625,108.88671875
7.21484375,5.859375,-25.390625,10.7421875,129.8828125
7.21875,24.90234375,-33.203125,16.6015625,145.01953125
7.22265625,4.8828125,-36.62109375,14.6484375,115.234375
7.2265625,-9.765625,-43.9453125,13.18359375,104.98046875
7.23046875,17.08984375,-43.9453125,13.671875,105.46875
7.234375,23.4375,-37.109375,15.13671875,108.88671875
7.23828125,27.83203125,-36.1328125,8.30078125,114.2578125
7.2421875,23.4375,-36.1328125,5.37109375,96.6796875
7.24609375,2.9296875,-37.59765625,5.37109375,93.26171875
7.25,26.85546875,-38.0859375,-1.953125,103.02734375
7.25390625,36.62109375,-35.15625,-0.9765625,123.53515625
7.2578125,21.484375,-38.57421875,3.41796875,127.44140625
7.26171875,21.484375,-36.1328125,4.8828125,116.2109375
7.265625,44.43359375,-36.1328125,5.37109375,120.60546875
7.26953125,45.41015625,-41.50390625,-0.48828125,102.05078125
7.2734375,36.62109375,-43.9453125,-1.953125,105.95703125
7.27734375,54.6875,-43.9453125,1.46484375,109.375
7.28125,82.03125,-32.71484375,-3.90625,103.515625
7.28515625,58.59375,-29.78515625,-10.7421875,64.453125
7.2890625,67.87109375,-34.66796875,-11.71875,37.59765625
7.29296875,51.26953125,-35.64453125,-9.765625,74.21875
7.296875,15.13671875,-31.73828125,-6.8359375,81.54296875
7.30078125,55.17578125,-24.90234375,-6.34765625,50.78125
7.3046875,55.17578125,-22.4609375,-10.7421875,42.96875
7.30859375,26.85546875,-23.92578125,-12.20703125,41.50390625
7.3125,49.8046875,-27.83203125,-13.18359375,42.96875
7.31640625,49.8046875,-30.2734375,-15.625,44.921875
7.3203125,39.55078125,-32.71484375,-19.53125,27.83203125
7.32421875,44.43359375,-35.15625,-19.53125,55.6640625
7.328125,48.33984375,-33.203125,-15.625,67.87109375
7.33203125,63.4765625,-33.203125,-16.11328125,24.4140625
7.3359375,95.703125,-32.2265625,-16.6015625,-30.76171875
7.33984375,52.24609375,-31.73828125,-15.625,-20.5078125
7.34375,-78.125,-31.25,-12.20703125,20.01953125
7.34765625,-115.234375,-26.85546875,-9.765625,55.6640625
7.3515625,-62.01171875,-26.85546875,-12.6953125,57.12890625
7.35546875,-61.5234375,-28.3203125,-13.671875,51.7578125
7.359375,-79.58984375,-26.85546875,-13.671875,81.54296875
7.36328125,-54.6875,-22.94921875,-17.08984375,93.26171875
7.3671875,-29.78515625,-25.87890625,-16.11328125,91.30859375
7.37109375,-43.45703125,-29.296875,-13.671875,77.63671875
7.375,-70.3125,-19.53125,-7.8125,88.37890625
7.37890625,-16.6015625,-12.20703125,-3.41796875,99.609375
7.3828125,-7.8125,-20.99609375,-7.32421875,79.1015625
7.38671875,-40.0390625,-22.94921875,-10.25390625,442.87109375
7.390625,-29.296875,-14.16015625,-8.30078125,916.015625
7.39453125,-23.4375,-14.6484375,-5.859375,970.703125
7.3984375,-16.11328125,-19.04296875,-10.25390625,966.30859375
7.40234375,-23.4375,-19.53125,-13.671875,941.40625
7.40625,-12.6953125,-18.06640625,-16.11328125,843.75
7.41015625,-37.109375,-25.87890625,-20.5078125,785.64453125
7.4140625,-24.4140625,-22.94921875,-16.11328125,735.83984375
7.41796875,-19.53125,-13.18359375,-13.18359375,687.01171875
7.421875,-71.2890625,-26.85546875,-17.08984375,657.71484375
7.42578125,-32.71484375,-36.1328125,-15.625,643.06640625
7.4296875,6.34765625,-31.73828125,-9.765625,645.99609375
7.43359375,-25.87890625,-26.3671875,-16.6015625,623.046875
7.4375,-71.2890625,-20.99609375,-23.92578125,563.96484375
7.44140625,41.50390625,-29.296875,-22.4609375,559.5703125
7.4453125,-372.55859375,-28.3203125,-20.99609375,542.48046875
7.44921875,-1000.0,-19.04296875,-22.94921875,485.83984375
7.453125,-1000.0,-22.94921875,-24.4140625,456.0546875
7.45703125,-983.88671875,-23.4375,-20.99609375,444.82421875
7.4609375,-1000.0,-24.4140625,-20.01953125,425.29296875
7.46484375,-1000.0,-19.04296875,-18.06640625,395.5078125
7.46875,-1000.0,-14.6484375,-13.18359375,364.74609375
7.47265625,-1000.0,-20.01953125,-16.11328125,341.796875
7.4765625,-1000.0,-26.85546875,-17.578125,341.796875
7.48046875,-1000.0,-31.25,-3.90625,346.6796875
7.484375,-1000.0,-24.4140625,-6.34765625,324.70703125
7.48828125,-1000.0,-20.01953125,-20.5078125,260.25390625
7.4921875,-999.0234375,-26.3671875,-15.625,231.93359375
7.49609375,-1000.0,-32.2265625,-4.8828125,243.1640625
7.5,-990.234375,-32.71484375,-8.7890625,225.5859375
7.50390625,-935.05859375,-38.0859375,-7.8125,192.87109375
7.5078125,-857.91015625,-42.96875,-2.44140625,205.56640625
7.51171875,-812.5,-26.3671875,-7.32421875,203.125
7.515625,-785.64453125,-20.99609375,-17.578125,177.734375
7.51953125,-729.00390625,-17.578125,-24.4140625,172.36328125
7.5234375,-685.05859375,-12.20703125,-14.16015625,157.71484375
7.52734375,-640.625,-22.94921875,-13.18359375,119.140625
7.53125,-604.00390625,-26.85546875,-21.97265625,125.48828125
7.53515625,-582.03125,-26.3671875,-26.3671875,114.2578125
7.5390625,-548.828125,-28.3203125,-23.92578125,89.35546875
7.54296875,-548.828125,-26.85546875,-18.06640625,84.9609375
7.546875,-475.5859375,-24.4140625,-15.625,97.16796875
7.55078125,-416.015625,-20.99609375,-12.6953125,107.421875
7.5546875,-436.03515625,-19.04296875,-21.484375,98.14453125
7.55859375,-416.9921875,-31.25,-27.83203125,346.19140625
7.5625,-384.765625,-38.0859375,-19.53125,538.57421875
7.56640625,-374.0234375,-20.01953125,-12.20703125,398.4375
7.5703125,-374.51171875,-13.18359375,-13.18359375,350.09765625
7.57421875,-298.828125,-14.16015625,-14.6484375,326.171875
7.578125,-255.859375,-12.6953125,-10.7421875,271.97265625
7.58203125,-234.86328125,-10.25390625,-9.765625,291.015625
7.5859375,-238.28125,-10.7421875,-13.671875,253.41796875
7.58984375,-279.296875,-16.11328125,-15.625,199.70703125
7.59375,-250.48828125,-16.6015625,-8.7890625,215.8203125
7.59765625,-208.984375,-13.671875,-7.32421875,162.109375
7.6015625,-202.63671875,-11.71875,-11.23046875,98.6328125
7.60546875,-219.23828125,-18.5546875,-16.6015625,63.4765625
7.609375,-219.7265625,-26.3671875,-17.578125,76.66015625
7.61328125,-168.9453125,-20.5078125,-16.6015625,62.98828125
7.6171875,-144.04296875,-17.578125,-13.18359375,50.29296875
7.62109375,-197.75390625,-19.04296875,-12.6953125,52.734375
7.625,-205.56640625,-21.97265625,-10.25390625,84.9609375
7.62890625,-157.2265625,-23.92578125,-9.27734375,138.671875
7.6328125,-130.37109375,-17.08984375,-13.18359375,130.859375
7.63671875,-104.98046875,-12.20703125,-12.20703125,117.1875
7.640625,-118.65234375,-19.04296875,-11.71875,76.66015625
7.64453125,-86.9140625,-23.92578125,-10.7421875,74.21875
7.6484375,-50.29296875,-14.6484375,-17.08984375,94.23828125
7.65234375,-52.24609375,-11.71875,-22.4609375,78.125
7.65625,-67.87109375,-11.71875,-17.08984375,56.640625
7.66015625,-89.35546875,-7.32421875,-15.625,51.7578125
7.6640625,-54.6875,-7.8125,-21.97265625,26.3671875
7.66796875,-54.19921875,-11.23046875,-26.3671875,22.4609375
7.671875,-70.80078125,-7.32421875,-28.80859375,22.94921875
7.67578125,-59.08203125,-1.46484375,-29.78515625,24.4140625
7.6796875,-53.22265625,-7.32421875,-32.2265625,21.97265625
7.68359375,-43.9453125,-6.34765625,-38.0859375,28.80859375
7.6875,9.27734375,-1.46484375,-41.015625,29.296875
7.69140625,11.23046875,-6.8359375,-39.0625,27.34375
7.6953125,-29.296875,-4.39453125,-33.69140625,19.53125
7.69921875,-9.765625,-2.44140625,-30.76171875,26.3671875
7.703125,-4.39453125,-9.27734375,-35.64453125,29.296875
7.70703125,0.0,-13.18359375,-32.71484375,0.9765625
7.7109375,-6.8359375,-19.04296875,-27.83203125,32.2265625
7.71484375,-8.7890625,-26.3671875,-28.3203125,44.43359375
7.71875,-14.6484375,-14.6484375,-27.83203125,48.33984375
7.72265625,-23.92578125,-7.32421875,-29.78515625,59.5703125
7.7265625,4.39453125,-1.46484375,-26.85546875,43.9453125
7.73046875,14.6484375,-4.39453125,-26.3671875,55.17578125
7.734375,7.8125,-13.18359375,-25.390625,61.03515625
7.73828125,-29.78515625,-9.765625,-23.92578125,34.66796875
7.7421875,-5.37109375,-13.671875,-21.484375,36.62109375
7.74609375,12.6953125,-21.97265625,-22.94921875,39.55078125
7.75,-3.90625,-23.92578125,-29.78515625,18.06640625
7.75390625,21.97265625,-22.4609375,-27.34375,0.9765625
7.7578125,29.296875,-18.5546875,-29.296875,-13.671875
7.76171875,-11.23046875,-16.6015625,-34.1796875,11.71875
7.765625,-37.109375,-15.13671875,-29.78515625,4.8828125
7.76953125,-18.06640625,-13.18359375,-27.34375,-13.18359375
7.7734375,-7.8125,-10.7421875,-32.2265625,-6.8359375
7.77734375,-2.9296875,-9.27734375,-31.25,0.9765625
7.78125,-3.41796875,-12.6953125,-29.78515625,-13.671875
7.78515625,-23.4375,-13.671875,-27.34375,-21.97265625
7.7890625,-41.015625,-11.23046875,-24.4140625,-37.59765625
7.79296875,-25.390625,-8.30078125,-31.25,-21.484375
7.796875,20.01953125,-9.765625,-30.76171875,-4.8828125
7.80078125,26.85546875,-17.08984375,-27.83203125,-28.80859375
7.8046875,28.3203125,-16.6015625,-24.90234375,-28.80859375
7.80859375,41.015625,-11.71875,-27.34375,-40.0390625
7.8125,39.55078125,-9.27734375,-32.71484375,-41.9921875
7.81640625,58.10546875,-6.34765625,-26.85546875,-20.5078125
7.8203125,57.12890625,-4.39453125,-17.08984375,-1.953125
7.82421875,35.15625,-4.8828125,-18.06640625,-2.9296875
7.828125,24.90234375,-14.16015625,-21.97265625,9.765625
7.83203125,12.20703125,-21.97265625,-19.04296875,29.296875
7.8359375,-9.27734375,-21.484375,-23.92578125,25.390625
7.83984375,4.8828125,-14.6484375,-28.3203125,30.76171875
7.84375,44.43359375,-8.7890625,-25.87890625,37.59765625
7.84765625,32.71484375,-8.30078125,-19.04296875,66.89453125
7.8515625,21.484375,-8.30078125,-20.01953125,64.453125
7.85546875,8.30078125,-10.25390625,-19.04296875,30.76171875
7.859375,-10.25390625,-15.625,-16.6015625,65.91796875
7.86328125,-2.44140625,-21.97265625,-19.04296875,68.84765625
7.8671875,31.25,-19.04296875,-22.94921875,49.31640625
7.87109375,56.640625,-16.11328125,-27.83203125,41.9921875
7.875,22.94921875,-16.6015625,-27.83203125,30.2734375
7.87890625,9.765625,-16.11328125,-27.83203125,52.24609375
7.8828125,20.01953125,-22.4609375,-32.2265625,55.6640625
7.88671875,26.3671875,-23.92578125,-20.99609375,9.27734375
7.890625,37.59765625,-19.53125,-16.11328125,-68.359375
7.89453125,56.640625,-22.94921875,-27.83203125,-118.1640625
7.8984375,82.51953125,-22.94921875,-34.1796875,-135.7421875
7.90234375,92.7734375,-13.671875,-29.78515625,-152.83203125
7.90625,83.0078125,-4.39453125,-22.94921875,-176.7578125
7.91015625,72.75390625,-7.8125,-26.3671875,-188.96484375
7.9140625,63.96484375,-14.6484375,-25.87890625,-188.96484375
7.91796875,57.6171875,-18.06640625,-19.04296875,-200.1953125
7.921875,52.734375,-20.99609375,-21.97265625,-194.82421875
7.92578125,51.26953125,-15.625,-28.3203125,-171.875
7.9296875,71.2890625,-13.18359375,-24.4140625,-187.98828125
7.93359375,92.28515625,-17.578125,-24.4140625,-205.078125
7.9375,79.58984375,-10.7421875,-29.296875,-205.078125
7.94140625,81.0546875,-8.30078125,-30.2734375,-173.828125
7.9453125,93.26171875,-19.53125,-18.5546875,-169.43359375
7.94921875,62.98828125,-25.87890625,-7.32421875,-239.2578125
7.953125,30.76171875,-25.87890625,-8.30078125,-271.484375
7.95703125,48.828125,-29.78515625,-8.30078125,-281.73828125
7.9609375,63.4765625,-31.73828125,-1.46484375,-281.73828125
7.96484375,68.359375,-34.1796875,3.41796875,-255.37109375
7.96875,67.3828125,-40.0390625,6.34765625,-256.34765625
7.97265625,40.0390625,-46.38671875,3.41796875,-297.36328125
7.9765625,29.78515625,-50.78125,2.9296875,-306.640625
7.98046875,53.22265625,-48.828125,10.25390625,-306.640625
7.984375,65.4296875,-45.41015625,15.13671875,-306.15234375
7.98828125,50.29296875,-46.38671875,20.01953125,-302.24609375
7.9921875,57.6171875,-45.8984375,15.625,-281.73828125
7.99609375,78.125,-43.9453125,14.16015625,-270.5078125
8.0,64.453125,-47.36328125,13.671875,-292.96875
8.00390625,54.19921875,-48.828125,7.32421875,-298.33984375
8.0078125,57.12890625,-45.41015625,12.20703125,-285.64453125
8.01171875,77.63671875,-41.9921875,28.80859375,-264.16015625
8.015625,86.42578125,-41.015625,34.66796875,-279.78515625
8.01953125,82.51953125,-35.64453125,29.296875,-294.43359375
8.0234375,87.40234375,-34.1796875,18.06640625,-309.08203125
8.02734375,89.84375,-40.0390625,7.32421875,-281.73828125
8.03125,89.84375,-38.0859375,8.30078125,-268.5546875
8.03515625,98.6328125,-28.3203125,16.11328125,-290.0390625
8.0390625,84.47265625,-33.203125,9.765625,-283.69140625
8.04296875,66.40625,-31.25,0.0,-308.10546875
8.046875,84.9609375,-22.4609375,5.37109375,-314.453125
8.05078125,92.28515625,-17.578125,13.671875,-296.38671875
8.0546875,70.3125,-25.87890625,2.9296875,-291.015625
8.05859375,71.2890625,-39.55078125,-5.859375,-275.390625
8.0625,67.3828125,-37.109375,-8.30078125,-270.99609375
8.06640625,73.73046875,-35.64453125,-9.27734375,-279.296875
8.0703125,82.51953125,-34.1796875,-0.9765625,-270.5078125
8.07421875,68.359375,-33.69140625,4.39453125,-270.01953125
8.078125,63.4765625,-30.2734375,-4.39453125,-277.83203125
8.08203125,54.6875,-23.92578125,-15.625,-275.390625
8.0859375,62.01171875,-25.390625,-18.06640625,-282.71484375
8.08984375,38.0859375,-31.25,-20.99609375,-302.24609375
8.09375,27.34375,-30.2734375,-36.1328125,-282.2265625
8.09765625,43.9453125,-27.83203125,-34.66796875,-261.23046875
8.1015625,55.6640625,-31.25,-20.99609375,-272.4609375
8.10546875,56.15234375,-34.1796875,-16.6015625,-306.15234375
8.109375,21.484375,-34.1796875,-16.6015625,-340.33203125
8.11328125,17.578125,-29.296875,-12.20703125,-344.23828125
8.1171875,27.83203125,-27.83203125,-3.41796875,-323.73046875
8.12109375,23.92578125,-29.78515625,-6.34765625,-319.3359375
8.125,24.4140625,-26.85546875,-12.20703125,-329.58984375
8.12890625,17.578125,-27.34375,-7.8125,-303.22265625
8.1328125,20.5078125,-28.80859375,-4.39453125,-295.41015625
8.13671875,16.11328125,-28.3203125,-7.8125,-312.5
